File: data/TGA/commercial_samples/ExpDat_2025_08_27_SL_PS_Blue_Cup_SCF3_Isothermal.csv
#EXPORTTYPE:                 ,DATA ALL
#FILE:                       ,2025_08_27_SL_PS_Blue_Cup_SCF3_Isothermal.ngb-ss5
#FORMAT:                     ,NETZSCH5
#FTYPE:                      ,ASCII
#IDENTITY:                   ,250821-P5EER3-V3+4
#DECIMAL:                    ,POINT
#SEPARATOR:                  ,COMMA
#MTYPE:                      ,DSC
#INSTRUMENT:                 ,NETZSCH STA 449F5
#PROJECT:                    ,Polystyrene
#DATE/TIME:                  ,8/27/2025 12:05:40 PM (UTC-4)
#CORR. FILE:                 ,
#TEMPCAL:                    ,05-05-2025 14:38
#SENSITIVITY:                ,28-06-2023 13:53
#LABORATORY:                 ,Tran/AAG
#OPERATOR:                   ,Stanley
#REMARK:                     ,2025_03_29_SL_005d_M1_isothermal
#SAMPLE:                     ,250821-P5EER3-V3+4
#SAMPLE MASS /mg:            ,5.35
#MATERIAL:                   ,Polystyrene
#REFERENCE:                  ,
#REFERENCE MASS /mg:         ,0
#TYPE OF CRUCIBLE:           ,Al2O3 85 ‘l, open
#SAMPLE CRUCIBLE MASS /mg:   ,0
#REFERENCE CRUCIBLE MASS /mg:,0
#DSC RANGE /‘V:              ,5000
#TG RANGE /mg:               ,35000
#TAU-R:                      ,---
#CORR. CODE:                 ,000
#EXO:                        ,-1
#RANGE:                      ,30›C....800›C/0.0....20.0K/min
#SEGMENT:                    ,S1-5/5
#SEG. 1:                     ,30›C/10.0(K/min)/100›C
#SEG. 2:                     ,100›C/00:10/100›C
#SEG. 3:                     ,100›C/5.0(K/min)/300›C
#SEG. 4:                     ,300›C/20:00/300›C
#SEG. 5:                     ,300›C/20.0(K/min)/800›C

##Temp./›C,Time/min,DSC/(mW/mg),Mass/%,Gas Flow(purge2)/(ml/min),Gas Flow(protective)/(ml/min),TIC(scan:1)/A,Sensit./(uV/mW),Segment
 26.41200,   0.00000,      0.69924,    100,50.00000,50.00000,            ,0.92285,1
 75.21200,   6.40000,      2.24920,     95.96748,50.00000,50.00000,8.178306e-09,0.92418,1
104.18,   9.89917,      1.11270,     94.07065,50.00000,50.00000,8.165746e-09,0.92487,2
109.999,  13.09917,      0.12331,     92.04467,50.00000,50.00000,8.144332e-09,0.92543,2
107.645,  16.29917,     -0.24860,     90.64056,50.00000,50.00000,8.151384e-09,0.92590,2
116.905,  21.99917,      1.04954,     92.21383,50.00000,50.00000,8.123576e-09,0.92618,3
152.961,  28.39917,      1.59046,     93.11682,50.00000,50.00000,8.128457e-09,0.92500,3
187.497,  34.79917,      1.46144,     92.94991,50.00000,50.00000,8.117982e-09,0.92340,3
219.602,  41.19917,      1.39007,     92.64112,50.00000,50.00000,8.099597e-09,0.92197,3
251.435,  47.59917,      1.31236,     91.91570,50.00000,50.00000,8.103139e-09,0.92090,3
283.324,  53.99917,      1.18602,     90.31495,50.00000,50.00000,8.114792e-09,0.92001,3
301.749,  65.49917,     -0.81816,     86.99925,50.00000,37.00000,8.106670e-09,0.91882,4
300.036,  81.49917,     -0.72954,     84.83383,50.00000,37.00000,8.127722e-09,0.91828,4
300.008,  97.49917,     -0.73495,     83.60523,50.00000,37.00000,8.138417e-09,0.91856,4
300.008, 113.499,     -0.73839,     82.79308,50.00000,37.00000,8.159644e-09,0.91916,4
300.007, 129.499,     -0.73676,     82.17776,50.00000,37.00000,8.163963e-09,0.91808,4
300.017, 145.499,     -0.73532,     81.67234,50.00000,37.00000,8.191721e-09,0.91200,4
300.018, 161.499,     -0.73496,     81.21981,50.00000,37.00000,8.204598e-09,0.90203,4
300.01, 177.499,     -0.73404,     80.80953,50.00000,37.00000,8.253330e-09,0.89039,4
300.005, 193.499,     -0.73404,     80.41626,50.00000,37.00000,8.276039e-09,0.87791,4
300.012, 209.499,     -0.73640,     79.97645,50.00000,37.00000,8.301127e-09,0.86452,4
300.011, 225.499,     -0.73223,     79.59159,50.00000,37.00000,8.338183e-09,0.85010,4
300.017, 241.499,     -0.73188,     79.17065,50.00000,37.00000,8.356172e-09,0.83473,4
300.026, 257.499,     -0.73297,     78.83028,50.00000,37.00000,8.349974e-09,0.81854,4
300.003, 273.499,     -0.73313,     78.44748,50.00000,37.00000,8.393784e-09,0.80168,4
300.015, 289.499,     -0.73532,     78.09234,50.00000,37.00000,8.427918e-09,0.78450,4
300.013, 305.499,     -0.73658,     77.72224,50.00000,37.00000,8.465903e-09,0.78641,4
300.015, 321.499,     -0.73369,     77.33308,50.00000,37.00000,8.478117e-09,0.78713,4
299.999, 337.499,     -0.73530,     76.96935,50.00000,37.00000,8.496814e-09,0.78720,4
300.022, 353.499,     -0.73315,     76.59084,50.00000,37.00000,8.529805e-09,0.78720,4
300.028, 369.499,     -0.73370,     76.19757,50.00000,38.00000,8.529902e-09,0.78720,4
300.012, 385.499,     -0.73405,     75.81477,50.00000,38.00000,8.540387e-09,0.78719,4
300.018, 401.499,     -0.73460,     75.47645,50.00000,38.00000,8.579562e-09,0.78718,4
300.002, 417.499,     -0.73440,     75.08318,50.00000,38.00000,8.589950e-09,0.78720,4
300.025, 433.499,     -0.73460,     74.70243,50.00000,38.00000,8.588433e-09,0.78720,4
300.002, 449.499,     -0.73295,     74.31981,50.00000,38.00000,8.574061e-09,0.78719,4
300.03, 465.499,     -0.73642,     73.93477,50.00000,38.00000,8.572614e-09,0.78719,4
299.998, 481.499,     -0.73693,     73.55850,50.00000,38.00000,8.577478e-09,0.78719,4
300.009, 497.499,     -0.73749,     73.16299,50.00000,39.00000,8.596067e-09,0.78721,4
300.023, 513.499,     -0.73913,     72.79084,50.00000,39.00000,8.580883e-09,0.78719,4
300.011, 529.499,     -0.73839,     72.40393,50.00000,39.00000,8.581637e-09,0.78719,4
300.02, 545.499,     -0.74058,     72.01477,50.00000,39.00000,8.583376e-09,0.78720,4
300.022, 561.499,     -0.74311,     71.62150,50.00000,40.00000,8.600615e-09,0.78720,4
300.014, 577.499,     -0.74293,     71.22598,50.00000,40.00000,8.611071e-09,0.78719,4
300.011, 593.499,     -0.74437,     70.83907,50.00000,40.00000,8.613212e-09,0.78720,4
300.016, 609.499,     -0.74456,     70.42243,50.00000,40.00000,8.642584e-09,0.78719,4
300.024, 625.499,     -0.74511,     70.04393,50.00000,40.00000,8.646521e-09,0.78718,4
300.032, 641.499,     -0.74693,     69.64430,50.00000,40.00000,8.645163e-09,0.78719,4
300.015, 657.499,     -0.74981,     69.21925,50.00000,40.00000,8.651497e-09,0.78719,4
300.017, 673.499,     -0.74945,     68.84692,50.00000,40.00000,8.673219e-09,0.78719,4
300.014, 689.499,     -0.75198,     68.41570,50.00000,40.00000,8.702823e-09,0.78719,4
300.002, 705.499,     -0.75306,     68.02654,50.00000,40.00000,8.688357e-09,0.78719,4
300.009, 721.499,     -0.75524,     67.60355,50.00000,40.00000,8.707191e-09,0.78719,4
300.027, 737.499,     -0.75435,     67.22935,50.00000,40.00000,8.700677e-09,0.78718,4
300.01, 753.499,     -0.75415,     66.82748,50.00000,40.00000,8.718730e-09,0.78720,4
300.02, 769.499,     -0.75579,     66.40243,50.00000,40.00000,8.719784e-09,0.78719,4
300.023, 785.499,     -0.75525,     66.00916,50.00000,40.00000,8.725671e-09,0.78720,4
300.016, 801.499,     -0.75814,     65.52280,50.00000,40.00000,8.729504e-09,0.78718,4
300.003, 817.499,     -0.75723,     65.09981,50.00000,40.00000,8.766897e-09,0.78718,4
300.012, 833.499,     -0.75941,     64.66000,50.00000,40.00000,8.760624e-09,0.78720,4
300.018, 849.499,     -0.75869,     64.26243,50.00000,40.00000,8.751063e-09,0.78719,4
300.024, 865.499,     -0.75833,     63.82467,50.00000,40.00000,8.764736e-09,0.78719,4
300.014, 881.499,     -0.75977,     63.43776,50.00000,40.00000,8.756319e-09,0.78719,4
300.02, 897.499,     -0.76086,     63.01907,50.00000,40.00000,8.766524e-09,0.78719,4
300.02, 913.499,     -0.76032,     62.58131,50.00000,40.00000,8.760638e-09,0.78720,4
300.015, 929.499,     -0.76032,     62.16673,50.00000,40.00000,8.759463e-09,0.78719,4
300.021, 945.499,     -0.76177,     61.72916,50.00000,40.00000,8.762230e-09,0.78719,4
300.018, 961.499,     -0.76213,     61.33570,50.00000,40.00000,8.778434e-09,0.78719,4
300.019, 977.499,     -0.76394,     60.89794,50.00000,40.00000,8.774374e-09,0.78719,4
300.029, 993.499,     -0.76395,     60.48991,50.00000,40.00000,8.768737e-09,0.78720,4
300.015,1009.5,     -0.76593,     60.05215,50.00000,40.00000,8.780169e-09,0.78720,4
300.006,1025.5,     -0.76466,     59.64617,50.00000,40.00000,8.802988e-09,0.78719,4
300.025,1041.5,     -0.76612,     59.22542,50.00000,40.00000,8.778771e-09,0.78719,4
300.017,1057.5,     -0.76630,     58.79813,50.00000,40.00000,8.775618e-09,0.78718,4
300.014,1073.5,     -0.76756,     58.39009,50.00000,40.00000,8.778992e-09,0.78719,4
300.02,1089.5,     -0.76666,     57.96710,50.00000,40.00000,8.781188e-09,0.78720,4
300.02,1105.5,     -0.76829,     57.54411,50.00000,40.00000,8.790157e-09,0.78718,4
300.009,1121.5,     -0.76756,     57.12766,50.00000,40.00000,8.774427e-09,0.78720,4
300.011,1137.5,     -0.76883,     56.68766,50.00000,40.00000,8.791886e-09,0.78721,4
300.001,1153.5,     -0.77063,     56.26056,50.00000,40.00000,8.791631e-09,0.78718,4
300.013,1169.5,     -0.77028,     55.84393,50.00000,40.00000,8.788096e-09,0.78720,4
300.025,1185.5,     -0.76957,     55.43159,50.00000,40.00000,8.798609e-09,0.78719,4
300.004,1201.5,     -0.77009,     55.04262,50.00000,40.00000,8.812048e-09,0.78720,4
300.011,1217.5,     -0.77245,     54.62804,50.00000,40.00000,8.798553e-09,0.78719,4
300.016,1233.5,     -0.77101,     54.24318,50.00000,40.00000,8.816012e-09,0.78718,4
300.017,1249.5,     -0.77264,     53.81402,50.00000,40.00000,8.803399e-09,0.78720,4
300.664,1257.42,     -0.46104,     53.68916,50.00000,50.00000,8.810462e-09,0.78718,5
310.355,1258.22,      2.91703,     54.70430,50.00000,50.00000,8.809939e-09,0.78718,5
324.567,1259.02,      4.54361,     55.00879,50.00000,50.00000,8.787232e-09,0.78718,5
338.232,1259.82,      4.69677,     55.16093,50.00000,50.00000,8.811364e-09,0.78718,5
354.359,1260.62,      5.64178,     55.44654,50.00000,50.00000,8.821022e-09,0.78719,5
371.678,1261.42,      6.11790,     55.28991,50.00000,50.00000,8.820932e-09,0.78719,5
389.026,1262.22,      6.34945,     54.02972,50.00000,50.00000,8.811370e-09,0.78719,5
406.582,1263.02,      6.72896,     50.21701,50.00000,50.00000,8.798011e-09,0.78719,5
424.043,1263.82,      7.45849,     40.38598,50.00000,50.00000,8.806280e-09,0.78720,5
441.287,1264.62,      8.18973,     21.25458,50.00000,50.00000,8.789715e-09,0.78719,5
458.31,1265.42,      7.20064,      3.88486,50.00000,50.00000,8.794560e-09,0.78718,5
475.185,1266.22,      5.47343,     -1.75495,50.00000,50.00000,8.801176e-09,0.78718,5
491.905,1267.02,      4.65244,     -2.56897,50.00000,50.00000,8.801292e-09,0.78719,5
508.418,1267.82,      4.22396,     -2.57533,50.00000,50.00000,8.795213e-09,0.78719,5
524.807,1268.62,      3.89875,     -2.49720,50.00000,50.00000,8.798025e-09,0.78718,5
541.104,1269.42,      3.59672,     -2.37028,50.00000,50.00000,8.811030e-09,0.78718,5
557.332,1270.22,      3.29890,     -2.23065,50.00000,50.00000,8.798613e-09,0.78720,5
573.529,1271.02,      3.01770,     -2.10374,50.00000,50.00000,8.804763e-09,0.78720,5
589.723,1271.82,      2.73882,     -1.97701,50.00000,50.00000,8.789072e-09,0.78720,5
605.885,1272.62,      2.45648,     -1.85009,50.00000,50.00000,8.820085e-09,0.78720,5
622.017,1273.42,      2.17222,     -1.72318,50.00000,50.00000,8.799453e-09,0.78720,5
638.14,1274.22,      1.88048,     -1.62168,50.00000,50.00000,8.796069e-09,0.78721,5
654.246,1275.02,      1.54356,     -1.49271,50.00000,50.00000,8.795137e-09,0.78719,5
670.35,1275.82,      1.15442,     -1.39121,50.00000,50.00000,8.807927e-09,0.78719,5
686.463,1276.62,      0.67266,     -1.28972,50.00000,50.00000,8.796361e-09,0.78719,5
702.573,1277.42, 7.694925e-02,     -1.18822,50.00000,50.00000,8.799702e-09,0.78720,5
718.712,1278.22,     -0.60866,     -1.08673,50.00000,50.00000,8.794057e-09,0.78720,5
734.86,1279.02,     -1.36524,     -0.98523,50.00000,50.00000,8.802369e-09,0.78719,5
750.98,1279.82,     -2.16500,     -0.88374,50.00000,50.00000,8.793902e-09,0.78719,5
767.113,1280.62,     -2.95110,     -0.78000,50.00000,50.00000,8.799980e-09,0.78719,5
783.243,1281.42,     -3.69825,     -0.67850,50.00000,50.00000,8.811528e-09,0.78719,5
794.83,1282,     -4.20103,     -0.60243,50.00000,50.00000,            ,0.44696,5