File: data/TGA/commercial_samples/ExpDat_2025_08_21_SL_PS_Cup_Lid_SCF3_Isothermal.csv
#EXPORTTYPE:                 ,DATA ALL
#FILE:                       ,2025_08_21_SL_PS_Cup_Lid_SCF3_Isothermal.ngb-ss5
#FORMAT:                     ,NETZSCH5
#FTYPE:                      ,ASCII
#IDENTITY:                   ,PS-CUP-LID-SCF3
#DECIMAL:                    ,POINT
#SEPARATOR:                  ,COMMA
#MTYPE:                      ,TG
#INSTRUMENT:                 ,NETZSCH STA 449F5
#PROJECT:                    ,NO2
#DATE/TIME:                  ,8/21/2025 9:04:38 AM (UTC-4)
#CORR. FILE:                 ,
#TEMPCAL:                    ,05-05-2025 14:38
#SENSITIVITY:                ,28-06-2023 13:53
#LABORATORY:                 ,Seferos
#OPERATOR:                   ,Peter
#REMARK:                     ,2025_03_29_SL_005d_M1_isothermal
#SAMPLE:                     ,PS-CUP-LID-SCF3
#SAMPLE MASS /mg:            ,4.58
#MATERIAL:                   ,Polystyrene
#REFERENCE:                  ,
#REFERENCE MASS /mg:         ,0
#TYPE OF CRUCIBLE:           ,Al2O3 85 ‘l, open
#SAMPLE CRUCIBLE MASS /mg:   ,0
#REFERENCE CRUCIBLE MASS /mg:,0
#DSC RANGE /‘V:              ,5000
#TG RANGE /mg:               ,35000
#TAU-R:                      ,---
#CORR. CODE:                 ,000
#EXO:                        ,-1
#RANGE:                      ,30›C....800›C/0.0....20.0K/min
#SEGMENT:                    ,S1-5/5
#SEG. 1:                     ,30›C/10.0(K/min)/100›C
#SEG. 2:                     ,100›C/00:10/100›C
#SEG. 3:                     ,100›C/5.0(K/min)/300›C
#SEG. 4:                     ,300›C/20:00/300›C
#SEG. 5:                     ,300›C/20.0(K/min)/800›C

##Temp./›C,Time/min,Mass/%,Sensit./(uV/mW),Segment
 27.81500,   0.00000,    100,0.92313,1
 41.31500,   2.96000,     93.23668,0.92523,1
 69.03300,   5.92000,     95.63275,0.92587,1
 92.24000,   7.94000,     95.88712,0.92277,2
101.945,   9.42000,     94.15808,0.92054,2
107.464,  10.90000,     93.11812,0.91903,2
109.825,  12.38000,     91.95961,0.91833,2
109.924,  13.86000,     91.03821,0.91830,2
108.809,  15.34000,     90.24782,0.91864,2
107.122,  16.82000,     89.63515,0.91913,2
108.553,  19.60000,     90.62817,0.91871,3
119.641,  22.56000,     91.98690,0.91511,3
136.021,  25.52000,     92.68341,0.90861,3
153.433,  28.48000,     92.82183,0.90024,3
169.923,  31.44000,     92.71550,0.89103,3
185.446,  34.40000,     92.54498,0.88132,3
200.445,  37.36000,     92.31288,0.87105,3
215.226,  40.32000,     92.03122,0.86018,3
229.935,  43.28000,     91.57183,0.84868,3
244.639,  46.24000,     90.95175,0.83660,3
259.392,  49.20000,     90.14651,0.82397,3
274.135,  52.16000,     89.14869,0.81091,3
288.884,  55.12000,     87.94563,0.79750,3
303.127,  59.70000,     85.13952,0.78429,4
301.242,  67.10000,     82.46441,0.78605,4
300.216,  74.50000,     81.05131,0.78700,4
300.035,  81.90000,     80.01397,0.78717,4
300.014,  89.30000,     79.23079,0.78719,4
300.008,  96.70000,     78.62314,0.78720,4
300.017, 104.1,     78.10699,0.78719,4
300.02, 111.5,     77.71419,0.78719,4
300.012, 118.9,     77.30895,0.78719,4
300.009, 126.3,     77.04236,0.78720,4
300.014, 133.7,     76.80022,0.78719,4
300.013, 141.1,     76.53100,0.78719,4
300.008, 148.5,     76.35066,0.78720,4
300.013, 155.9,     76.15044,0.78719,4
300.016, 163.3,     75.93319,0.78719,4
300.019, 170.7,     75.76266,0.78719,4
300.02, 178.1,     75.58231,0.78719,4
300.015, 185.5,     75.44410,0.78719,4
300.018, 192.9,     75.24389,0.78719,4
300.018, 200.3,     75.08581,0.78719,4
300.02, 207.7,     74.90568,0.78719,4
300.018, 215.1,     74.79432,0.78719,4
300.02, 222.5,     74.63886,0.78719,4
300.009, 229.9,     74.50546,0.78720,4
300.026, 237.3,     74.38428,0.78718,4
300.016, 244.7,     74.20415,0.78719,4
300.017, 252.1,     74.05328,0.78719,4
300.016, 259.5,     73.96441,0.78719,4
300.02, 266.9,     73.80131,0.78719,4
300.025, 274.3,     73.66812,0.78718,4
300.019, 281.7,     73.53472,0.78719,4
300.007, 289.1,     73.41114,0.78720,4
300.008, 296.5,     73.30480,0.78720,4
300.017, 303.9,     73.17162,0.78719,4
300.006, 311.3,     73.07031,0.78720,4
300.023, 318.7,     72.92707,0.78718,4
300.015, 326.1,     72.86769,0.78719,4
300.018, 333.5,     72.72205,0.78719,4
300.01, 340.9,     72.53908,0.78720,4
300.011, 348.3,     72.45262,0.78720,4
300.015, 355.7,     72.33406,0.78719,4
300.018, 363.1,     72.24279,0.78719,4
300.011, 370.5,     72.13166,0.78720,4
300.01, 377.9,     71.99825,0.78720,4
300.017, 385.3,     71.87227,0.78719,4
300.008, 392.7,     71.74869,0.78720,4
300.021, 400.1,     71.63755,0.78719,4
300.01, 407.5,     71.57336,0.78720,4
300.016, 414.9,     71.35349,0.78719,4
300.001, 422.3,     71.24236,0.78721,4
300.012, 429.7,     71.13362,0.78719,4
300.023, 437.1,     70.99520,0.78718,4
300.028, 444.5,     70.91878,0.78718,4
300.02, 451.9,     70.78035,0.78719,4
300.001, 459.3,     70.68166,0.78721,4
300.012, 466.7,     70.56790,0.78719,4
300.025, 474.1,     70.44192,0.78718,4
300.024, 481.5,     70.31354,0.78718,4
300.006, 488.9,     70.16288,0.78720,4
300.021, 496.3,     70.07882,0.78719,4
300.021, 503.7,     69.95284,0.78719,4
300.018, 511.1,     69.81703,0.78719,4
300.012, 518.5,     69.68603,0.78719,4
300.018, 525.9,     69.54039,0.78719,4
300.013, 533.3,     69.46376,0.78719,4
300.019, 540.7,     69.34279,0.78719,4
300.024, 548.1,     69.22162,0.78718,4
300.02, 555.5,     69.10066,0.78719,4
300.022, 562.9,     68.94498,0.78719,4
300.017, 570.3,     68.85611,0.78719,4
300.014, 577.7,     68.73013,0.78719,4
300.01, 585.1,     68.60655,0.78720,4
300.019, 592.5,     68.46092,0.78719,4
300.012, 599.9,     68.32751,0.78719,4
300.038, 607.3,     68.24105,0.78717,4
300.024, 614.7,     68.09279,0.78718,4
300.012, 622.1,     67.95939,0.78719,4
300.023, 629.5,     67.81616,0.78718,4
300.014, 636.9,     67.72489,0.78719,4
300.014, 644.3,     67.62838,0.78719,4
300.006, 651.7,     67.50240,0.78720,4
300.005, 659.1,     67.35437,0.78720,4
300.017, 666.5,     67.24803,0.78719,4
300.021, 673.9,     67.12948,0.78719,4
300.011, 681.3,     67.01092,0.78720,4
300.015, 688.7,     66.87991,0.78719,4
300.022, 696.1,     66.77860,0.78719,4
300.014, 703.5,     66.65284,0.78719,4
300.021, 710.9,     66.53406,0.78719,4
300.023, 718.3,     66.45262,0.78718,4
300.023, 725.7,     66.29694,0.78718,4
300.019, 733.1,     66.20066,0.78719,4
300.014, 740.5,     66.08450,0.78719,4
300.019, 747.9,     65.94127,0.78719,4
300.014, 755.3,     65.81528,0.78719,4
300.014, 762.7,     65.67948,0.78719,4
300.011, 770.1,     65.57576,0.78720,4
300.022, 777.5,     65.42009,0.78719,4
300.008, 784.9,     65.33865,0.78720,4
300.017, 792.3,     65.18057,0.78719,4
300.024, 799.7,     65.05939,0.78718,4
300.003, 807.1,     64.94083,0.78720,4
300.007, 814.5,     64.84454,0.78720,4
300.02, 821.9,     64.67402,0.78719,4
300.013, 829.3,     64.56048,0.78719,4
300.018, 836.7,     64.41223,0.78719,4
300.023, 844.1,     64.28624,0.78718,4
300.011, 851.5,     64.17271,0.78720,4
300.022, 858.9,     64.00218,0.78719,4
300.017, 866.3,     63.88362,0.78719,4
300.002, 873.7,     63.73297,0.78720,4
300.016, 881.1,     63.63428,0.78719,4
300.024, 888.5,     63.47598,0.78718,4
300.009, 895.9,     63.36245,0.78720,4
300.019, 903.3,     63.25633,0.78719,4
300.013, 910.7,     63.11550,0.78719,4
300.006, 918.1,     62.97467,0.78720,4
300.015, 925.5,     62.83384,0.78719,4
300.016, 932.9,     62.71528,0.78719,4
300.008, 940.3,     62.56703,0.78720,4
300.025, 947.7,     62.44105,0.78718,4
300.019, 955.1,     62.31507,0.78719,4
300.008, 962.5,     62.14476,0.78720,4
300.021, 969.9,     62.00393,0.78719,4
300.012, 977.3,     61.87052,0.78719,4
300.008, 984.7,     61.73952,0.78720,4
300.026, 992.1,     61.57642,0.78718,4
300.029, 999.5,     61.46048,0.78718,4
300.02,1006.9,     61.32205,0.78719,4
300.023,1014.3,     61.16900,0.78718,4
300.02,1021.7,     61.04541,0.78719,4
300.014,1029.1,     60.89236,0.78719,4
300.011,1036.5,     60.75633,0.78720,4
300.027,1043.9,     60.63777,0.78718,4
300.016,1051.3,     60.48231,0.78719,4
300.023,1058.7,     60.36616,0.78718,4
300.034,1066.1,     60.21790,0.78717,4
300.016,1073.5,     60.09192,0.78719,4
300.009,1080.9,     59.95109,0.78720,4
300.017,1088.3,     59.81528,0.78719,4
300.021,1095.7,     59.65961,0.78719,4
300.022,1103.1,     59.50415,0.78719,4
300.017,1110.5,     59.39279,0.78719,4
300.019,1117.9,     59.23734,0.78719,4
300.003,1125.3,     59.09651,0.78720,4
300.008,1132.7,     58.97052,0.78720,4
300.029,1140.1,     58.82227,0.78718,4
300.016,1147.5,     58.71354,0.78719,4
300.026,1154.9,     58.58755,0.78718,4
300.023,1162.3,     58.42467,0.78718,4
300.017,1169.7,     58.29127,0.78719,4
300.017,1177.1,     58.14061,0.78719,4
300.012,1184.5,     58.01943,0.78719,4
300.023,1191.9,     57.89345,0.78718,4
300.016,1199.3,     57.76004,0.78719,4
300.02,1206.7,     57.61681,0.78719,4
300.017,1214.1,     57.46856,0.78719,4
300.019,1221.5,     57.33777,0.78719,4
300.011,1228.9,     57.16725,0.78720,4
300.016,1236.3,     57.06856,0.78719,4
300.009,1243.7,     56.92271,0.78720,4
300.011,1251.1,     56.77948,0.78720,4
300.022,1257.08,     56.65349,0.78719,5
300.765,1257.44,     56.98210,0.78649,5
304.015,1257.82,     57.85153,0.78346,5
309.663,1258.18,     58.60240,0.77816,5
316.314,1258.56,     59.02729,0.77188,5
322.821,1258.92,     59.17555,0.76572,5
328.972,1259.3,     59.26441,0.75987,5
335.245,1259.66,     59.38799,0.75389,5
342.101,1260.04,     59.57074,0.74735,5
349.596,1260.4,     59.75109,0.74020,5
357.487,1260.78,     59.90175,0.73267,5
365.499,1261.14,     59.87205,0.72504,5
373.507,1261.52,     59.78319,0.71744,5
381.497,1261.88,     59.45218,0.70988,5
389.555,1262.26,     58.74083,0.70231,5
397.66,1262.62,     57.48843,0.69474,5
405.794,1262.99,     55.40109,0.68720,5
413.902,1263.37,     52.09847,0.67976,5
421.96,1263.73,     46.90131,0.67243,5
429.963,1264.11,     39.19913,0.66524,5
437.936,1264.47,     29.05415,0.65816,5
445.855,1264.85,     17.99279,0.65121,5
453.724,1265.21,      8.87533,0.64440,5
461.555,1265.59,      3.11485,0.63772,5
469.371,1265.95, 5.938865e-02,0.63116,5
477.158,1266.33,     -1.37096,0.62472,5
484.888,1266.69,     -1.99825,0.61843,5
492.597,1267.07,     -2.24782,0.61227,5
500.241,1267.43,     -2.31441,0.60627,5
507.865,1267.81,     -2.31441,0.60039,5
515.459,1268.17,     -2.28493,0.59465,5
523.032,1268.55,     -2.25524,0.58902,5
530.586,1268.91,     -2.22555,0.58353,5
538.113,1269.29,     -2.18843,0.57816,5
545.625,1269.65,     -2.10459,0.57291,5
553.134,1270.03,     -2.03777,0.56778,5
560.65,1270.39,     -1.97860,0.56274,5
568.147,1270.77,     -1.88952,0.55783,5
575.637,1271.13,     -1.83035,0.55302,5
583.122,1271.51,     -1.75633,0.54833,5
590.596,1271.88,     -1.67969,0.54374,5
598.081,1272.24,     -1.62031,0.53925,5
605.566,1272.62,     -1.53144,0.53485,5
613.034,1272.98,     -1.47205,0.53056,5
620.488,1273.36,     -1.41288,0.52637,5
627.951,1273.72,     -1.33886,0.52227,5
635.41,1274.1,     -1.28690,0.51826,5
642.858,1274.46,     -1.19803,0.51434,5
650.315,1274.84,     -1.10895,0.51049,5
657.769,1275.2,     -1.07948,0.50673,5
665.215,1275.58,     -1.02009,0.50304,5
672.667,1275.94,     -0.93122,0.49942,5
680.115,1276.32,     -0.87183,0.49588,5
687.57,1276.68,     -0.82009,0.49239,5
695.038,1277.06,     -0.75328,0.48896,5
702.487,1277.42,     -0.69410,0.48559,5
709.955,1277.8,     -0.60502,0.48226,5
717.416,1278.16,     -0.54585,0.47899,5
724.875,1278.54,     -0.48646,0.47577,5
732.34,1278.9,     -0.42729,0.47258,5
739.798,1279.28,     -0.33843,0.46943,5
747.26,1279.64,     -0.30873,0.46631,5
754.723,1280.02,     -0.21987,0.46322,5
762.177,1280.38,     -0.16790,0.46016,5
769.646,1280.76,     -0.10852,0.45712,5
777.098,1281.12,-4.934498e-02,0.45410,5
784.545,1281.49, 3.951965e-02,0.45109,5
792.011,1281.87, 9.148472e-02,0.44809,5
794.742,1282,      0.12860,0.44699,5