File: data/TGA/commercial_samples/ExpDat_2025_08_13_SL_PS_Cup_Lid_Isothermal.csv
#EXPORTTYPE:                 ,DATA ALL
#FILE:                       ,2025_08_13_SL_PS_Cup_Lid_Isothermal.ngb-ss5
#FORMAT:                     ,NETZSCH5
#FTYPE:                      ,ASCII
#IDENTITY:                   ,PS-Cup-Lid
#DECIMAL:                    ,POINT
#SEPARATOR:                  ,COMMA
#MTYPE:                      ,TG
#INSTRUMENT:                 ,NETZSCH STA 449F5
#PROJECT:                    ,
#DATE/TIME:                  ,8/13/2025 8:50:47 AM (UTC-4)
#CORR. FILE:                 ,
#TEMPCAL:                    ,05-05-2025 14:38
#SENSITIVITY:                ,28-06-2023 13:53
#LABORATORY:                 ,Tran/AAG
#OPERATOR:                   ,Stanley
#REMARK:                     ,2025_03_29_SL_005d_M1_isothermal
#SAMPLE:                     ,PS-Cup-Lid
#SAMPLE MASS /mg:            ,5.25
#MATERIAL:                   ,Polystyrene
#REFERENCE:                  ,
#REFERENCE MASS /mg:         ,0
#TYPE OF CRUCIBLE:           ,Al2O3 85 ‘l, open
#SAMPLE CRUCIBLE MASS /mg:   ,0
#REFERENCE CRUCIBLE MASS /mg:,0
#DSC RANGE /‘V:              ,5000
#TG RANGE /mg:               ,35000
#TAU-R:                      ,---
#CORR. CODE:                 ,000
#EXO:                        ,-1
#RANGE:                      ,30›C....800›C/0.0....20.0K/min
#SEGMENT:                    ,S1-5/5
#SEG. 1:                     ,30›C/10.0(K/min)/100›C
#SEG. 2:                     ,100›C/00:10/100›C
#SEG. 3:                     ,100›C/5.0(K/min)/300›C
#SEG. 4:                     ,300›C/20:00/300›C
#SEG. 5:                     ,300›C/20.0(K/min)/800›C

##Temp./›C,Time/min,Mass/%,Sensit./(uV/mW),Segment
 28.60200,   0.00000,    100,0.92329,1
 43.05600,   3.08000,     93.97048,0.92542,1
 72.60200,   6.16000,     95.98533,0.92561,1
 94.29500,   8.10083,     95.72038,0.92234,2
103.191,   9.64083,     94.34971,0.92021,2
108.125,  11.18083,     93.56533,0.91884,2
109.752,  12.72083,     92.58057,0.91835,2
109.371,  14.26083,     91.69276,0.91847,2
107.975,  15.80083,     91.17333,0.91888,2
105.941,  17.72083,     90.85238,0.91946,3
112.238,  20.80083,     92.21638,0.91759,3
127.082,  23.88083,     93.19048,0.91233,3
145.076,  26.96083,     93.63219,0.90444,3
162.737,  30.04083,     93.80019,0.89519,3
179.207,  33.12083,     93.92533,0.88534,3
194.963,  36.20083,     94.03295,0.87490,3
210.391,  39.28083,     94.14933,0.86381,3
225.706,  42.36083,     94.20971,0.85205,3
241.006,  45.44083,     94.23562,0.83964,3
256.365,  48.52083,     94.18381,0.82660,3
271.712,  51.60083,     94.05238,0.81309,3
287.042,  54.68083,     93.87143,0.79919,3
302.548,  58.96083,     92.95771,0.78483,4
301.317,  66.66083,     91.72076,0.78598,4
300.211,  74.36083,     90.98800,0.78701,4
300.035,  82.06083,     90.43219,0.78717,4
300.015,  89.76083,     90.04419,0.78719,4
300.012,  97.46083,     89.74895,0.78719,4
300.018, 105.161,     89.53352,0.78719,4
300.014, 112.861,     89.35886,0.78719,4
300.011, 120.561,     89.24895,0.78720,4
300.018, 128.261,     89.15848,0.78719,4
300.016, 135.961,     89.07886,0.78719,4
300.017, 143.661,     88.99695,0.78719,4
300.018, 151.361,     88.92800,0.78719,4
300.031, 159.061,     88.90000,0.78718,4
300.014, 166.761,     88.80952,0.78719,4
300.028, 174.461,     88.74686,0.78718,4
300.023, 182.161,     88.71238,0.78718,4
300.012, 189.861,     88.63695,0.78719,4
300.011, 197.561,     88.60895,0.78720,4
300.029, 205.261,     88.60895,0.78718,4
300.015, 212.961,     88.57448,0.78719,4
300.007, 220.661,     88.51200,0.78720,4
300.024, 228.361,     88.43657,0.78718,4
299.998, 236.061,     88.36552,0.78721,4
300.02, 243.761,     88.32019,0.78719,4
300.019, 251.461,     88.24267,0.78719,4
300.008, 259.161,     88.17371,0.78720,4
300.001, 266.861,     88.12210,0.78721,4
300.024, 274.561,     88.09390,0.78718,4
300.021, 282.261,     88.03581,0.78719,4
300.015, 289.961,     87.93886,0.78719,4
300.011, 297.661,     87.88057,0.78720,4
300.013, 305.361,     87.81162,0.78719,4
300.021, 313.061,     87.77943,0.78719,4
300.004, 320.761,     87.77505,0.78720,4
300.018, 328.461,     87.74705,0.78719,4
300.023, 336.161,     87.72552,0.78718,4
300.024, 343.861,     87.73619,0.78718,4
300.018, 351.561,     87.71695,0.78719,4
300.011, 359.261,     87.71695,0.78720,4
300.026, 366.961,     87.63505,0.78718,4
300.024, 374.661,     87.66076,0.78718,4
300.015, 382.361,     87.64571,0.78719,4
300.029, 390.061,     87.62629,0.78718,4
300.005, 397.761,     87.56171,0.78720,4
300.012, 405.461,     87.50362,0.78719,4
300.006, 413.161,     87.45181,0.78720,4
300.015, 420.861,     87.37638,0.78719,4
300.017, 428.561,     87.31600,0.78719,4
300.032, 436.261,     87.27943,0.78718,4
300.014, 443.961,     87.18895,0.78719,4
300.002, 451.661,     87.13295,0.78720,4
300.025, 459.361,     87.14590,0.78718,4
300.025, 467.061,     87.15238,0.78718,4
300.022, 474.761,     87.14152,0.78719,4
300.011, 482.461,     87.10914,0.78720,4
300.019, 490.161,     87.05105,0.78719,4
300.013, 497.861,     87.01429,0.78719,4
300.02, 505.561,     86.97771,0.78719,4
300.011, 513.261,     86.93257,0.78720,4
300.022, 520.961,     86.88933,0.78719,4
300.015, 528.661,     86.86990,0.78719,4
300.021, 536.361,     86.79029,0.78719,4
300.005, 544.061,     86.77733,0.78720,4
300.006, 551.761,     86.75790,0.78720,4
300.01, 559.461,     86.72990,0.78720,4
300.016, 567.161,     86.69752,0.78719,4
300.034, 574.861,     86.68686,0.78717,4
300.025, 582.561,     86.64152,0.78718,4
300.015, 590.261,     86.65029,0.78719,4
300.015, 597.961,     86.61562,0.78719,4
300.01, 605.661,     86.59638,0.78720,4
300.008, 613.361,     86.58762,0.78720,4
300.014, 621.061,     86.54895,0.78719,4
300.021, 628.761,     86.53600,0.78719,4
300.02, 636.461,     86.52743,0.78719,4
300.013, 644.161,     86.50362,0.78719,4
300.013, 651.861,     86.46705,0.78719,4
300.004, 659.561,     86.46705,0.78720,4
300.016, 667.261,     86.45410,0.78719,4
300.021, 674.961,     86.42819,0.78719,4
300.016, 682.661,     86.41962,0.78719,4
300.012, 690.361,     86.38724,0.78719,4
300.015, 698.061,     86.37219,0.78719,4
300.021, 705.761,     86.38076,0.78719,4
300.025, 713.461,     86.34857,0.78718,4
300.016, 721.161,     86.34210,0.78719,4
300.022, 728.861,     86.32914,0.78719,4
300.007, 736.561,     86.29029,0.78720,4
300.018, 744.261,     86.32267,0.78719,4
300.008, 751.961,     86.30324,0.78720,4
300.009, 759.661,     86.28610,0.78720,4
300.002, 767.361,     86.26019,0.78720,4
300.009, 775.061,     86.24076,0.78720,4
300.023, 782.761,     86.20190,0.78718,4
300.018, 790.461,     86.18895,0.78719,4
300.017, 798.161,     86.16971,0.78719,4
300.013, 805.861,     86.15676,0.78719,4
300.014, 813.561,     86.15676,0.78719,4
300.022, 821.261,     86.13733,0.78719,4
300.011, 828.961,     86.11790,0.78720,4
300.009, 836.661,     86.06838,0.78720,4
300.014, 844.361,     86.04457,0.78719,4
300.026, 852.061,     86.02533,0.78718,4
300.012, 859.761,     86.04457,0.78719,4
300.016, 867.461,     85.99295,0.78719,4
299.997, 875.161,     85.96495,0.78721,4
300.029, 882.861,     85.97143,0.78718,4
300.014, 890.561,     85.93905,0.78719,4
300.024, 898.261,     85.89390,0.78718,4
300.01, 905.961,     85.87867,0.78720,4
300.007, 913.661,     85.89162,0.78720,4
299.99, 921.361,     85.84648,0.78722,4
300.021, 929.061,     85.80762,0.78719,4
300.019, 936.761,     85.81410,0.78719,4
300.006, 944.461,     85.82267,0.78720,4
300.02, 952.161,     85.80324,0.78719,4
300.027, 959.861,     85.76457,0.78718,4
300.014, 967.561,     85.74514,0.78719,4
300.013, 975.261,     85.75162,0.78719,4
300.01, 982.961,     85.70629,0.78720,4
300.028, 990.661,     85.69333,0.78718,4
300, 998.361,     85.69124,0.78721,4
300.025,1006.06,     85.63962,0.78718,4
300.012,1013.76,     85.61790,0.78719,4
300.017,1021.46,     85.59638,0.78719,4
300.023,1029.16,     85.57067,0.78718,4
300.021,1036.86,     85.55771,0.78719,4
300.01,1044.56,     85.57486,0.78720,4
300.027,1052.26,     85.52324,0.78718,4
300.027,1059.96,     85.51029,0.78718,4
300.018,1067.66,     85.51676,0.78719,4
300.011,1075.36,     85.49943,0.78720,4
300.019,1083.06,     85.45200,0.78719,4
300.014,1090.76,     85.43257,0.78719,4
300.021,1098.46,     85.40686,0.78719,4
300.001,1106.16,     85.39390,0.78721,4
300.021,1113.86,     85.38095,0.78719,4
300.009,1121.56,     85.36800,0.78720,4
300.031,1129.26,     85.32705,0.78718,4
300.018,1136.96,     85.34648,0.78719,4
300.014,1144.66,     85.29905,0.78719,4
300.014,1152.36,     85.27314,0.78719,4
300.013,1160.06,     85.27962,0.78719,4
300.014,1167.76,     85.26667,0.78719,4
300.021,1175.46,     85.24095,0.78719,4
300.014,1183.16,     85.21924,0.78719,4
300.005,1190.86,     85.20648,0.78720,4
300.024,1198.56,     85.20648,0.78718,4
300.01,1206.26,     85.20648,0.78720,4
300.013,1213.96,     85.17410,0.78719,4
300.006,1221.66,     85.16552,0.78720,4
300.017,1229.36,     85.14819,0.78719,4
300.03,1237.06,     85.12876,0.78718,4
300.022,1244.76,     85.12457,0.78719,4
300.009,1252.46,     85.13752,0.78720,4
300.047,1257.12,     85.11371,0.78716,5
301.511,1257.51,     85.57067,0.78580,5
305.898,1257.89,     86.34210,0.78169,5
312.451,1258.28,     86.90229,0.77553,5
319.507,1258.66,     87.16095,0.76886,5
326.197,1259.05,     87.24495,0.76251,5
332.677,1259.43,     87.34838,0.75634,5
339.546,1259.82,     87.51010,0.74979,5
347.083,1260.2,     87.71257,0.74260,5
355.176,1260.59,     87.90876,0.73487,5
363.512,1260.97,     88.01638,0.72693,5
371.851,1261.36,     88.09390,0.71901,5
380.168,1261.74,     88.14571,0.71114,5
388.504,1262.13,     88.12629,0.70329,5
396.9,1262.51,     87.97124,0.69545,5
405.32,1262.9,     87.51429,0.68764,5
413.71,1263.28,     86.25581,0.67993,5
422.059,1263.67,     83.79714,0.67235,5
430.349,1264.05,     78.96781,0.66489,5
438.587,1264.44,     70.18438,0.65758,5
446.741,1264.82,     55.16229,0.65044,5
454.886,1265.21,     37.36267,0.64341,5
463.02,1265.59,     21.28457,0.63649,5
471.12,1265.98,     10.12419,0.62970,5
479.172,1266.36,      3.94819,0.62307,5
487.158,1266.75,      0.73086,0.61661,5
495.12,1267.13,     -0.98000,0.61028,5
503.064,1267.52,     -1.59219,0.60408,5
510.978,1267.9,     -1.67619,0.59802,5
518.877,1268.29,     -1.59848,0.59209,5
526.737,1268.67,     -1.54686,0.58631,5
534.582,1269.06,     -1.44343,0.58066,5
542.394,1269.44,     -1.36590,0.57516,5
550.172,1269.83,     -1.28819,0.56979,5
557.941,1270.21,     -1.21067,0.56454,5
565.71,1270.6,     -1.10724,0.55941,5
573.479,1270.98,     -1.02971,0.55440,5
581.242,1271.37,     -0.92629,0.54950,5
589.006,1271.75,     -0.87448,0.54471,5
596.762,1272.14,     -0.81638,0.54003,5
604.501,1272.52,     -0.71943,0.53547,5
612.245,1272.91,     -0.69352,0.53101,5
619.995,1273.29,     -0.64171,0.52665,5
627.751,1273.68,     -0.62876,0.52238,5
635.487,1274.06,     -0.62876,0.51822,5
643.227,1274.45,     -0.64171,0.51415,5
650.983,1274.83,     -0.69352,0.51015,5
658.739,1275.22,     -0.75810,0.50624,5
666.482,1275.6,     -0.78838,0.50242,5
674.225,1275.99,     -0.81410,0.49868,5
681.953,1276.37,     -0.86590,0.49501,5
689.699,1276.76,     -0.84000,0.49140,5
697.459,1277.14,     -0.81410,0.48786,5
705.223,1277.53,     -0.73448,0.48436,5
712.975,1277.91,     -0.65257,0.48093,5
720.739,1278.3,     -0.57505,0.47755,5
728.507,1278.68,     -0.49733,0.47421,5
736.272,1279.07,     -0.44571,0.47091,5
744.007,1279.45,     -0.36800,0.46767,5
751.758,1279.84,     -0.29048,0.46445,5
759.539,1280.22,     -0.21295,0.46124,5
767.297,1280.61,     -0.10952,0.45807,5
775.054,1280.99,-5.771429e-02,0.45493,5
782.792,1281.38, 2.190476e-02,0.45180,5
790.516,1281.76, 8.666667e-02,0.44869,5
794.536,1281.96,      0.11238,0.44708,5