File: data/TGA/commercial_samples/ExpDat_2025_09_09_SL_PS_Blue_Cup_SCF3_P5EER3_V3_4_dynamic.csv
#EXPORTTYPE:                 ,DATA ALL
#FILE:                       ,2025_09_09_SL_PS_Blue_Cup_SCF3_P5EER3_V3_4_Dynamic.ngb-ss5
#FORMAT:                     ,NETZSCH5
#FTYPE:                      ,ASCII
#IDENTITY:                   ,P5EER3-V3+4
#DECIMAL:                    ,POINT
#SEPARATOR:                  ,COMMA
#MTYPE:                      ,DSC
#INSTRUMENT:                 ,NETZSCH STA 449F5
#PROJECT:                    ,PS-SCF3
#DATE/TIME:                  ,9/8/2025 10:19:03 AM (UTC-4)
#CORR. FILE:                 ,
#TEMPCAL:                    ,05-05-2025 14:38
#SENSITIVITY:                ,28-06-2023 13:53
#LABORATORY:                 ,Tran
#OPERATOR:                   ,Stanley
#REMARK:                     ,2025_03_20_Styrofoam_dynamic
#SAMPLE:                     ,P5EER3-V3+4
#SAMPLE MASS /mg:            ,4.99
#MATERIAL:                   ,Polystyrene
#REFERENCE:                  ,
#REFERENCE MASS /mg:         ,0
#TYPE OF CRUCIBLE:           ,Al2O3 85 ‘l, open
#SAMPLE CRUCIBLE MASS /mg:   ,0
#REFERENCE CRUCIBLE MASS /mg:,0
#DSC RANGE /‘V:              ,5000
#TG RANGE /mg:               ,35000
#TAU-R:                      ,---
#CORR. CODE:                 ,000
#EXO:                        ,-1
#RANGE:                      ,20›C....800›C/0.0....20.0K/min
#SEGMENT:                    ,S1-4/4
#SEG. 1:                     ,20›C/5.0(K/min)/100›C
#SEG. 2:                     ,100›C/00:05/100›C
#SEG. 3:                     ,100›C/1.0(K/min)/400›C
#SEG. 4:                     ,400›C/20.0(K/min)/800›C

##Temp./›C,Time/min,DSC/(mW/mg),Mass/%,Gas Flow(purge2)/(ml/min),Gas Flow(protective)/(ml/min),TIC(scan:1)/A,Sensit./(uV/mW),Segment
 23.39900,  0.00000,      0.84240,    100,50.00000,38.00000,            ,0.92219,1
 35.85200,  5.00000,      0.73360,     91.79719,50.00000,33.00000,6.862482e-09,0.92336,1
 60.66700, 10.00000,      1.68842,     93.44088,50.00000,33.00000,6.890155e-09,0.92402,1
 91.01000, 15.00000,      1.91089,     94.03948,50.00000,33.00000,6.905464e-09,0.92496,1
106.647, 19.00000,      0.70171,     92.27114,50.00000,33.00000,6.918916e-09,0.92568,2
107.464, 23.33333,-5.390206e-02,     90.49820,50.00000,33.00000,6.930234e-09,0.92617,3
107.677, 28.33333,      0.13809,     89.94269,50.00000,33.00000,6.912107e-09,0.92598,3
111.409, 33.33333,      0.34748,     89.77034,50.00000,33.00000,6.926532e-09,0.92488,3
116.589, 38.33333,      0.40169,     89.57315,50.00000,33.00000,6.943834e-09,0.92294,3
121.823, 43.33333,      0.39665,     89.38717,50.00000,33.00000,6.925440e-09,0.92084,3
126.899, 48.33333,      0.38944,     89.27375,50.00000,33.00000,6.912483e-09,0.91964,3
131.919, 53.33333,      0.38846,     89.21263,50.00000,33.00000,6.925633e-09,0.91903,3
136.923, 58.33333,      0.38938,     89.22405,50.00000,33.00000,6.927047e-09,0.91890,3
141.918, 63.33333,      0.38952,     89.23988,50.00000,33.00000,6.895031e-09,0.91903,3
146.932, 68.33333,      0.39022,     89.30782,50.00000,33.00000,6.923366e-09,0.91913,3
151.937, 73.33333,      0.39148,     89.38257,50.00000,33.00000,6.928650e-09,0.91908,3
156.94, 78.33333,      0.38973,     89.42806,50.00000,33.00000,6.917673e-09,0.91885,3
161.955, 83.33333,      0.38598,     89.50281,50.00000,33.00000,6.903240e-09,0.91845,3
166.957, 88.33333,      0.38173,     89.61162,50.00000,33.00000,6.914158e-09,0.91791,3
171.931, 93.33333,      0.37389,     89.67976,50.00000,33.00000,6.910652e-09,0.91730,3
176.952, 98.33333,      0.36553,     89.76814,50.00000,33.00000,6.925200e-09,0.91662,3
181.937,103.333,      0.35403,     89.86112,50.00000,33.00000,6.911209e-09,0.91593,3
186.934,108.333,      0.34127,     89.92004,50.00000,33.00000,6.905709e-09,0.91519,3
191.945,113.333,      0.32881,     89.99479,50.00000,33.00000,6.917478e-09,0.91447,3
196.962,118.333,      0.31209,     90.02204,50.00000,33.00000,6.926659e-09,0.91374,3
201.95,123.333,      0.29947,     90.07194,50.00000,33.00000,6.923082e-09,0.91297,3
206.945,128.333,      0.28254,     90.05611,50.00000,33.00000,6.924846e-09,0.91219,3
211.936,133.333,      0.26692,     90.06513,50.00000,33.00000,6.934973e-09,0.91141,3
216.954,138.333,      0.24887,     90.07876,50.00000,33.00000,6.920041e-09,0.91059,3
221.939,143.333,      0.23515,     90.03106,50.00000,33.00000,6.912045e-09,0.90978,3
226.94,148.333,      0.21450,     90.01303,50.00000,33.00000,6.920926e-09,0.90892,3
231.935,153.333,      0.19277,     89.94048,50.00000,33.00000,6.930458e-09,0.90807,3
236.919,158.333,      0.17339,     89.85651,50.00000,33.00000,6.920177e-09,0.90717,3
241.919,163.333,      0.15492,     89.78397,50.00000,33.00000,6.944663e-09,0.90625,3
246.931,168.333,      0.13134,     89.66373,50.00000,33.00000,6.920108e-09,0.90530,3
251.927,173.333,      0.11121,     89.52786,50.00000,33.00000,6.912336e-09,0.90438,3
256.921,178.333, 8.846599e-02,     89.38717,50.00000,33.00000,6.906288e-09,0.90344,3
261.923,183.333, 6.307347e-02,     89.29198,50.00000,33.00000,6.916381e-09,0.90245,3
266.931,188.333, 3.086527e-02,     89.12425,50.00000,33.00000,6.924302e-09,0.90146,3
271.92,193.333, 1.880845e-03,     88.98597,50.00000,33.00000,6.917313e-09,0.90043,3
276.932,198.333,-2.855902e-02,     88.78858,50.00000,33.00000,6.919746e-09,0.89942,3
281.927,203.333,-6.428690e-02,     88.62084,50.00000,33.00000,6.914883e-09,0.89835,3
286.914,208.333,-9.583237e-02,     88.44409,50.00000,33.00000,6.907399e-09,0.89726,3
291.929,213.333,     -0.13275,     88.23768,50.00000,33.00000,6.919623e-09,0.89618,3
296.901,218.333,     -0.17049,     87.98597,50.00000,33.00000,6.916494e-09,0.89507,3
301.913,223.333,     -0.20926,     87.77515,50.00000,33.00000,6.917623e-09,0.89397,3
306.916,228.333,     -0.24949,     87.49399,50.00000,34.00000,6.923830e-09,0.89282,3
311.951,233.333,     -0.28411,     87.21523,50.00000,34.00000,6.906270e-09,0.89170,3
316.915,238.333,     -0.32965,     86.90681,50.00000,34.00000,6.912659e-09,0.89054,3
321.928,243.333,     -0.36640,     86.52144,50.00000,34.00000,6.910266e-09,0.88934,3
326.937,248.333,     -0.40722,     86.12926,50.00000,34.00000,6.911818e-09,0.88812,3
331.923,253.333,     -0.45360,     85.62144,50.00000,34.00000,6.935776e-09,0.88693,3
336.927,258.333,     -0.49631,     84.97756,50.00000,34.00000,6.925784e-09,0.88566,3
341.914,263.333,     -0.53587,     84.08417,50.00000,34.00000,6.940430e-09,0.88445,3
346.927,268.333,     -0.57329,     82.86212,50.00000,34.00000,6.928712e-09,0.88316,3
351.93,273.333,     -0.61201,     81.03928,50.00000,34.00000,6.941315e-09,0.88191,3
356.905,278.333,     -0.64600,     78.45932,50.00000,34.00000,6.920031e-09,0.88059,3
361.926,283.333,     -0.67082,     74.44168,50.00000,34.00000,6.932408e-09,0.87931,3
366.922,288.333,     -0.67881,     68.44729,50.00000,34.00000,6.929003e-09,0.87797,3
371.922,293.333,     -0.67628,     60.09479,50.00000,34.00000,6.922344e-09,0.87661,3
376.916,298.333,     -0.67904,     48.72705,50.00000,34.00000,6.918472e-09,0.87528,3
381.926,303.333,     -0.72753,     34.94008,50.00000,34.00000,6.927334e-09,0.87389,3
386.917,308.333,     -0.87165,     20.96052,50.00000,34.00000,6.917357e-09,0.87254,3
391.934,313.333,     -1.08935,      9.81483,50.00000,34.00000,6.932200e-09,0.87112,3
396.938,318.333,     -1.31147,      2.82044,50.00000,34.00000,6.935439e-09,0.86973,3
399.832,321.175,     -1.39117,      0.38317,50.00000,34.00000,6.929503e-09,0.86892,4
402.191,321.55,-2.346987e-02,      0.48297,50.00000,34.00000,6.919092e-09,0.86883,4
408,321.925,      3.07853,      0.73006,50.00000,34.00000,6.932221e-09,0.86873,4
415.559,322.3,      5.66741,      0.78677,50.00000,34.00000,6.946971e-09,0.86863,4
422.772,322.675,      6.46400,      0.47174,50.00000,34.00000,6.931741e-09,0.86849,4
429.149,323.05,      6.12821, 2.404810e-03,50.00000,34.00000,6.934699e-09,0.86839,4
435.398,323.425,      5.87773,     -0.49198,50.00000,34.00000,6.940968e-09,0.86829,4
442.224,323.8,      6.19674,     -0.94088,50.00000,34.00000,6.927351e-09,0.86819,4
449.695,324.175,      6.80105,     -1.39659,50.00000,34.00000,6.923643e-09,0.86805,4
457.483,324.55,      7.23592,     -1.92926,50.00000,34.00000,6.923339e-09,0.86796,4
465.292,324.925,      7.34722,     -2.43046,50.00000,34.00000,6.931828e-09,0.86786,4
473.041,325.3,      7.27626,     -2.75230,50.00000,34.00000,6.915109e-09,0.86776,4
480.815,325.675,      7.18319,     -2.94729,50.00000,34.00000,6.920710e-09,0.86762,4
488.676,326.05,      7.13123,     -2.99499,50.00000,34.00000,6.916904e-09,0.86751,4
496.592,326.425,      7.09170,     -2.96774,50.00000,34.00000,6.917512e-09,0.86742,4
504.496,326.8,      7.02174,     -2.88617,50.00000,34.00000,6.917112e-09,0.86733,4
512.399,327.175,      6.91463,     -2.85892,50.00000,34.00000,6.921767e-09,0.86723,4
520.268,327.55,      6.78972,     -2.77735,50.00000,34.00000,6.930528e-09,0.86707,4
528.122,327.925,      6.66500,     -2.72285,50.00000,34.00000,6.930804e-09,0.86698,4
535.959,328.3,      6.53791,     -2.64128,50.00000,34.00000,6.921233e-09,0.86688,4
543.78,328.675,      6.40981,     -2.58677,50.00000,34.00000,6.921069e-09,0.86679,4
551.601,329.05,      6.27256,     -2.53246,50.00000,34.00000,6.924600e-09,0.86669,4
559.394,329.425,      6.12524,     -2.45070,50.00000,34.00000,6.917356e-09,0.86655,4
567.156,329.8,      5.97453,     -2.39639,50.00000,34.00000,6.915363e-09,0.86645,4
574.896,330.175,      5.82577,     -2.32164,50.00000,34.00000,6.916851e-09,0.86636,4
582.639,330.55,      5.67875,     -2.25812,50.00000,34.00000,6.925550e-09,0.86625,4
590.356,330.925,      5.52445,     -2.20361,50.00000,34.00000,6.922344e-09,0.86615,4
598.062,331.3,      5.36744,     -2.09038,50.00000,34.00000,6.923609e-09,0.86600,4
605.746,331.675,      5.20943,     -2.06072,50.00000,34.00000,6.941112e-09,0.86592,4
613.431,332.05,      5.05584,     -2.00641,50.00000,34.00000,6.918308e-09,0.86581,4
621.091,332.425,      4.89194,     -1.95190,50.00000,34.00000,6.944714e-09,0.86572,4
628.759,332.8,      4.72745,     -1.89299,50.00000,34.00000,6.921101e-09,0.86562,4
636.392,333.175,      4.55487,     -1.83868,50.00000,34.00000,6.916523e-09,0.86547,4
644.021,333.55,      4.37253,     -1.78417,50.00000,34.00000,6.913141e-09,0.86538,4
651.648,333.925,      4.18751,     -1.67535,50.00000,34.00000,6.927466e-09,0.86529,4
659.258,334.3,      3.99952,     -1.64810,50.00000,34.00000,6.931125e-09,0.86518,4
666.858,334.675,      3.80621,     -1.61423,50.00000,34.00000,6.931669e-09,0.86508,4
674.483,335.05,      3.61201,     -1.51222,50.00000,34.00000,6.926963e-09,0.86494,4
682.081,335.425,      3.39550,     -1.48497,50.00000,34.00000,6.920418e-09,0.86483,4
689.664,335.8,      3.08482,     -1.43046,50.00000,34.00000,6.926572e-09,0.86472,4
697.268,336.175,      2.84360,     -1.37615,50.00000,34.00000,6.919968e-09,0.86464,4
704.861,336.55,      2.58691,     -1.31263,50.00000,34.00000,6.928397e-09,0.86449,4
712.456,336.925,      2.31456,     -1.25832,50.00000,34.00000,6.936535e-09,0.86439,4
720.041,337.3,      2.01895,     -1.17655,50.00000,34.00000,6.940237e-09,0.86429,4
727.623,337.675,      1.70778,     -1.14930,50.00000,34.00000,6.901315e-09,0.86418,4
735.212,338.05,      1.37596,     -1.09499,50.00000,34.00000,6.915796e-09,0.86409,4
742.806,338.425,      1.01370,     -1.04048,50.00000,34.00000,6.913925e-09,0.86395,4
750.367,338.8,      0.62338,     -0.98617,50.00000,34.00000,6.934234e-09,0.86384,4
757.929,339.175,      0.20125,     -0.90461,50.00000,34.00000,6.925942e-09,0.86376,4
765.489,339.55,     -0.23327,     -0.87735,50.00000,34.00000,6.922950e-09,0.86365,4
773.059,339.925,     -0.68708,     -0.82285,50.00000,34.00000,6.932237e-09,0.86355,4
780.61,340.3,     -1.15545,     -0.76854,50.00000,34.00000,6.926522e-09,0.86341,4
788.186,340.675,     -1.63256,     -0.71403,50.00000,34.00000,6.912776e-09,0.86330,4
794.746,341,     -2.05230,     -0.66413,50.00000,34.00000,            ,0.44699,4