File: data/TGA/commercial_samples/ExpDat_2025_08_03_SL_PS_Blue_Cup_Isothermal.csv
#EXPORTTYPE:                 ,DATA ALL
#FILE:                       ,2025_08_03_SL_PS_Blue_Cup_Isothermal.ngb-ss5
#FORMAT:                     ,NETZSCH5
#FTYPE:                      ,ASCII
#IDENTITY:                   ,PS-Blue-Cup
#DECIMAL:                    ,POINT
#SEPARATOR:                  ,COMMA
#MTYPE:                      ,DSC
#INSTRUMENT:                 ,NETZSCH STA 449F5
#PROJECT:                    ,
#DATE/TIME:                  ,8/3/2025 5:12:55 PM (UTC-4)
#CORR. FILE:                 ,
#TEMPCAL:                    ,05-05-2025 14:38
#SENSITIVITY:                ,28-06-2023 13:53
#LABORATORY:                 ,Tran/AAG
#OPERATOR:                   ,Stanley
#REMARK:                     ,2025_03_29_SL_005d_M1_isothermal
#SAMPLE:                     ,PS-Blue-Cup
#SAMPLE MASS /mg:            ,5.04
#MATERIAL:                   ,Polystyrene
#REFERENCE:                  ,
#REFERENCE MASS /mg:         ,0
#TYPE OF CRUCIBLE:           ,Al2O3 85 ‘l, open
#SAMPLE CRUCIBLE MASS /mg:   ,0
#REFERENCE CRUCIBLE MASS /mg:,0
#DSC RANGE /‘V:              ,5000
#TG RANGE /mg:               ,35000
#TAU-R:                      ,---
#CORR. CODE:                 ,000
#EXO:                        ,-1
#RANGE:                      ,30›C....800›C/0.0....20.0K/min
#SEGMENT:                    ,S1-5/5
#SEG. 1:                     ,30›C/10.0(K/min)/100›C
#SEG. 2:                     ,100›C/00:10/100›C
#SEG. 3:                     ,100›C/5.0(K/min)/300›C
#SEG. 4:                     ,300›C/20:00/300›C
#SEG. 5:                     ,300›C/20.0(K/min)/800›C

##Temp./›C,Time/min,DSC/(mW/mg),Mass/%,Gas Flow(purge2)/(ml/min),Gas Flow(protective)/(ml/min),TIC(scan:1)/A,Sensit./(uV/mW),Segment
 40.40600,   0.00000,     -0.19864,100,50.00000,50.00000,            ,0.92513,1
 70.41800,   6.04000,      2.29490,109.051,50.00000,50.00000,1.444134e-08,0.92522,1
101.758,   9.52000,      1.63482,108.292,50.00000,50.00000,1.437619e-08,0.92546,2
110.214,  12.54000,      0.39484,106.55,50.00000,50.00000,1.442997e-08,0.92572,2
109.235,  15.56000,     -0.26353,105.324,50.00000,50.00000,1.441804e-08,0.92597,2
110.458,  20.20000,      0.70005,107.015,50.00000,50.00000,1.444070e-08,0.92620,3
140.631,  26.24000,      2.01233,109.702,50.00000,50.00000,1.440887e-08,0.92561,3
174.934,  32.28000,      2.01801,110.478,50.00000,50.00000,1.443129e-08,0.92411,3
205.734,  38.32000,      1.99196,110.999,50.00000,50.00000,1.438370e-08,0.92278,3
235.741,  44.36000,      2.01925,111.417,50.00000,50.00000,1.441761e-08,0.92161,3
265.787,  50.40000,      1.99480,111.462,50.00000,50.00000,1.441220e-08,0.92064,3
295.865,  56.44000,      1.89926,111.246,50.00000,50.00000,1.441191e-08,0.91977,3
300.537,  70.76000,     -0.69694,109.778,50.00000,36.00000,1.436197e-08,0.91841,4
300.021,  85.86000,     -0.64825,108.494,50.00000,36.00000,1.433018e-08,0.91813,4
300.021, 100.96,     -0.64671,107.731,50.00000,36.00000,1.436922e-08,0.91851,4
300.016, 116.06,     -0.64921,107.197,50.00000,36.00000,1.431467e-08,0.91921,4
300.017, 131.16,     -0.64632,106.761,50.00000,36.00000,1.430764e-08,0.91689,4
300.022, 146.26,     -0.64152,106.391,50.00000,36.00000,1.428324e-08,0.90989,4
300.018, 161.36,     -0.64267,106.072,50.00000,36.00000,1.428944e-08,0.89975,4
300.015, 176.46,     -0.63920,105.742,50.00000,36.00000,1.426935e-08,0.88840,4
300.037, 191.56,     -0.63403,105.41,50.00000,36.00000,1.424920e-08,0.87618,4
300.022, 206.66,     -0.62671,105.078,50.00000,36.00000,1.423709e-08,0.86327,4
300.021, 221.76,     -0.62709,104.757,50.00000,36.00000,1.423688e-08,0.84945,4
300.009, 236.86,     -0.62882,104.418,50.00000,36.00000,1.425065e-08,0.83455,4
300.017, 251.96,     -0.61305,104.103,50.00000,36.00000,1.426339e-08,0.81888,4
300.008, 267.06,     -0.61401,103.753,50.00000,36.00000,1.419548e-08,0.80278,4
300.027, 282.16,     -0.61383,103.437,50.00000,36.00000,1.419942e-08,0.78516,4
300.023, 297.26,     -0.61017,103.084,50.00000,36.00000,1.422810e-08,0.78613,4
300.009, 312.36,     -0.60978,102.727,50.00000,36.00000,1.425008e-08,0.78707,4
300.019, 327.46,     -0.60190,102.368,50.00000,36.00000,1.420268e-08,0.78719,4
300.028, 342.56,     -0.59537,102.029,50.00000,36.00000,1.421486e-08,0.78719,4
300.024, 357.66,     -0.59594,101.679,50.00000,36.00000,1.421994e-08,0.78720,4
300.007, 372.76,     -0.58939,101.284,50.00000,36.00000,1.419014e-08,0.78720,4
300.012, 387.86,     -0.58690,100.927,50.00000,36.00000,1.417644e-08,0.78720,4
300.012, 402.96,     -0.58190,100.584,50.00000,36.00000,1.416045e-08,0.78720,4
300.024, 418.06,     -0.58402,100.222,50.00000,36.00000,1.418389e-08,0.78719,4
300.007, 433.16,     -0.57959, 99.85179,50.00000,36.00000,1.413497e-08,0.78719,4
300.016, 448.26,     -0.58536, 99.47480,50.00000,36.00000,1.415189e-08,0.78719,4
300.016, 463.36,     -0.57825, 99.10218,50.00000,36.00000,1.418633e-08,0.78720,4
300.029, 478.46,     -0.56883, 98.69583,50.00000,36.00000,1.416838e-08,0.78719,4
300.016, 493.56,     -0.57017, 98.34107,50.00000,36.00000,1.412655e-08,0.78719,4
300.02, 508.66,     -0.56460, 97.94385,50.00000,36.00000,1.413563e-08,0.78719,4
300.019, 523.76,     -0.55825, 97.54643,50.00000,36.00000,1.412918e-08,0.78718,4
299.993, 538.86,     -0.55266, 97.13790,50.00000,36.00000,1.411779e-08,0.78719,4
300.023, 553.96,     -0.54652, 96.76310,50.00000,36.00000,1.410665e-08,0.78720,4
300.015, 569.06,     -0.55075, 96.34563,50.00000,36.00000,1.408272e-08,0.78718,4
300.025, 584.16,     -0.54479, 95.91230,50.00000,36.00000,1.406176e-08,0.78721,4
300.01, 599.26,     -0.54940, 95.50159,50.00000,36.00000,1.407445e-08,0.78720,4
300.015, 614.36,     -0.54440, 95.10417,50.00000,36.00000,1.407876e-08,0.78719,4
300.002, 629.46,     -0.54516, 94.67321,50.00000,36.00000,1.404292e-08,0.78720,4
300.007, 644.56,     -0.54363, 94.28274,50.00000,36.00000,1.405292e-08,0.78720,4
300.02, 659.66,     -0.53844, 93.85397,50.00000,36.00000,1.405746e-08,0.78718,4
300.018, 674.76,     -0.53979, 93.41171,50.00000,36.00000,1.404660e-08,0.78720,4
300.015, 689.86,     -0.53806, 92.98750,50.00000,36.00000,1.402831e-08,0.78718,4
300.006, 704.96,     -0.53940, 92.57004,50.00000,36.00000,1.402564e-08,0.78719,4
300.02, 720.06,     -0.53460, 92.18393,50.00000,36.00000,1.400319e-08,0.78719,4
300.028, 735.16,     -0.53556, 91.73710,50.00000,36.00000,1.399578e-08,0.78719,4
300.018, 750.26,     -0.53421, 91.32857,50.00000,36.00000,1.398884e-08,0.78719,4
300.019, 765.36,     -0.53210, 90.94484,50.00000,36.00000,1.392790e-08,0.78720,4
300.013, 780.46,     -0.52075, 90.45992,50.00000,36.00000,1.394639e-08,0.78719,4
300.01, 795.56,     -0.51959, 90.02004,50.00000,36.00000,1.393496e-08,0.78720,4
300.016, 810.66,     -0.51267, 89.57103,50.00000,36.00000,1.392750e-08,0.78720,4
300.013, 825.76,     -0.51075, 89.14444,50.00000,36.00000,1.390556e-08,0.78719,4
300.026, 840.86,     -0.51364, 88.70913,50.00000,36.00000,1.389390e-08,0.78720,4
300.017, 855.96,     -0.50825, 88.28036,50.00000,36.00000,1.388848e-08,0.78720,4
300.014, 871.06,     -0.51056, 87.85595,50.00000,36.00000,1.388447e-08,0.78719,4
300.01, 886.16,     -0.50555, 87.37560,50.00000,36.00000,1.387788e-08,0.78720,4
300.011, 901.26,     -0.50671, 86.92897,50.00000,36.00000,1.387210e-08,0.78719,4
300.014, 916.36,     -0.49767, 86.51151,50.00000,36.00000,1.388150e-08,0.78719,4
300.025, 931.46,     -0.49499, 86.05139,50.00000,36.00000,1.387479e-08,0.78720,4
300.028, 946.56,     -0.49056, 85.57321,50.00000,36.00000,1.383656e-08,0.78719,4
300.015, 961.66,     -0.49152, 85.12877,50.00000,36.00000,1.384202e-08,0.78719,4
300.019, 976.76,     -0.49056, 84.69544,50.00000,35.00000,1.385048e-08,0.78718,4
300.006, 991.86,     -0.49267, 84.21508,50.00000,35.00000,1.387076e-08,0.78720,4
300.002,1006.96,     -0.48901, 83.75278,50.00000,35.00000,1.382756e-08,0.78720,4
300.011,1022.06,     -0.49113, 83.30595,50.00000,35.00000,1.384273e-08,0.78720,4
300.008,1037.16,     -0.48690, 82.83909,50.00000,35.00000,1.383518e-08,0.78720,4
300.023,1052.26,     -0.48748, 82.36548,50.00000,35.00000,1.382923e-08,0.78719,4
300.014,1067.36,     -0.49113, 81.92560,50.00000,35.00000,1.380444e-08,0.78719,4
300.022,1082.46,     -0.48710, 81.41151,50.00000,35.00000,1.381167e-08,0.78718,4
300.027,1097.56,     -0.48729, 80.94226,50.00000,35.00000,1.377212e-08,0.78719,4
299.996,1112.66,     -0.48651, 80.52480,50.00000,35.00000,1.381880e-08,0.78718,4
300.016,1127.76,     -0.48767, 80.06905,50.00000,35.00000,1.379919e-08,0.78719,4
300.017,1142.86,     -0.48614, 79.56845,50.00000,35.00000,1.384933e-08,0.78720,4
300.029,1157.96,     -0.48422, 79.14425,50.00000,35.00000,1.383975e-08,0.78719,4
300.015,1173.06,     -0.48383, 78.63929,50.00000,35.00000,1.380775e-08,0.78719,4
300,1188.16,     -0.47978, 78.17679,50.00000,35.00000,1.382776e-08,0.78719,4
300.013,1203.26,     -0.47883, 77.72341,50.00000,35.00000,1.380660e-08,0.78720,4
300.009,1218.36,     -0.47767, 77.26548,50.00000,35.00000,1.385992e-08,0.78719,4
300.016,1233.46,     -0.47171, 76.77837,50.00000,35.00000,1.383365e-08,0.78720,4
300.009,1248.56,     -0.47325, 76.34504,50.00000,35.00000,1.379323e-08,0.78719,4
300.392,1257.3,     -0.12851, 75.84008,50.00000,50.00000,1.382365e-08,0.78719,5
308.452,1258.05,      4.28843, 76.48651,50.00000,50.00000,1.378493e-08,0.78719,5
322.017,1258.81,      6.91691, 76.95575,50.00000,50.00000,1.382987e-08,0.78719,5
334.85,1259.56,      7.08125, 77.09028,50.00000,50.00000,1.382340e-08,0.78720,5
349.381,1260.32,      8.28685, 77.33730,50.00000,50.00000,1.381612e-08,0.78720,5
365.628,1261.07,      9.32569, 77.21825,50.00000,50.00000,1.383633e-08,0.78720,5
381.951,1261.83,      9.74229, 76.04881,50.00000,50.00000,1.381801e-08,0.78719,5
398.412,1262.58,     10.45575, 72.39881,50.00000,50.00000,1.381154e-08,0.78719,5
414.935,1263.34,     11.75039, 62.63433,50.00000,50.00000,1.381098e-08,0.78720,5
431.234,1264.09,     13.45401, 41.59683,50.00000,50.00000,1.384387e-08,0.78719,5
447.323,1264.85,     12.08996, 19.69742,50.00000,50.00000,1.380103e-08,0.78719,5
463.39,1265.6,      9.13463, 15.15635,50.00000,50.00000,1.382416e-08,0.78718,5
479.239,1266.36,      8.09565, 14.92282,50.00000,50.00000,1.382808e-08,0.78718,5
494.876,1267.11,      7.56449, 15.05754,50.00000,50.00000,1.381782e-08,0.78718,5
510.374,1267.87,      7.14821, 15.19901,50.00000,50.00000,1.381894e-08,0.78719,5
525.773,1268.62,      6.74265, 15.34702,50.00000,50.00000,1.383306e-08,0.78718,5
541.102,1269.38,      6.35113, 15.49524,50.00000,50.00000,1.379775e-08,0.78717,5
556.395,1270.13,      5.95762, 15.69960,50.00000,50.00000,1.381159e-08,0.78718,5
571.631,1270.88,      5.56104, 15.82302,50.00000,50.00000,1.381817e-08,0.78719,5
586.863,1271.64,      5.16772, 15.97103,50.00000,50.00000,1.379803e-08,0.78719,5
602.075,1272.39,      4.77458, 16.10575,50.00000,50.00000,1.381428e-08,0.78719,5
617.277,1273.15,      4.38797, 16.26746,50.00000,50.00000,1.381188e-08,0.78719,5
632.47,1273.9,      3.98396, 16.38869,50.00000,50.00000,1.382716e-08,0.78719,5
647.648,1274.66,      3.57785, 16.52341,50.00000,50.00000,1.381919e-08,0.78718,5
662.821,1275.41,      3.21926, 16.63115,50.00000,50.00000,1.382572e-08,0.78719,5
678.036,1276.17,      2.90043, 16.76567,50.00000,50.00000,1.382595e-08,0.78718,5
693.21,1276.92,      2.57142, 16.87341,50.00000,50.00000,1.382000e-08,0.78719,5
708.389,1277.68,      2.32916, 16.99464,50.00000,50.00000,1.379536e-08,0.78719,5
723.577,1278.43,      2.12197, 17.10238,50.00000,50.00000,1.384632e-08,0.78719,5
738.752,1279.19,      1.94139, 17.21687,50.00000,50.00000,1.382857e-08,0.78720,5
753.958,1279.94,      1.78143, 17.34484,50.00000,50.00000,1.381059e-08,0.78719,5
769.181,1280.7,      1.58690, 17.47282,50.00000,50.00000,1.382639e-08,0.78719,5
784.36,1281.45,      1.37631, 17.58056,50.00000,50.00000,1.380961e-08,0.78719,5
794.516,1281.96,      1.22772, 17.66131,50.00000,50.00000,            ,0.44708,5