File: data/TGA/commercial_samples/ExpDat_2025_08_17_SL_PS_Container_Dynamic.csv
#EXPORTTYPE:                 ,DATA ALL
#FILE:                       ,2025_08_17_SL_PS_Container_Dynamic.ngb-ss5
#FORMAT:                     ,NETZSCH5
#FTYPE:                      ,ASCII
#IDENTITY:                   ,PS-Container
#DECIMAL:                    ,POINT
#SEPARATOR:                  ,COMMA
#MTYPE:                      ,TG
#INSTRUMENT:                 ,NETZSCH STA 449F5
#PROJECT:                    ,
#DATE/TIME:                  ,8/17/2025 12:32:47 PM (UTC-4)
#CORR. FILE:                 ,
#TEMPCAL:                    ,05-05-2025 14:38
#SENSITIVITY:                ,28-06-2023 13:53
#LABORATORY:                 ,Tran/AAG
#OPERATOR:                   ,Stanley
#REMARK:                     ,2025_03_20_Styrofoam_dynamic
#SAMPLE:                     ,PS-Container
#SAMPLE MASS /mg:            ,5.15
#MATERIAL:                   ,Polystyrene
#REFERENCE:                  ,
#REFERENCE MASS /mg:         ,0
#TYPE OF CRUCIBLE:           ,Al2O3 85 ‘l, open
#SAMPLE CRUCIBLE MASS /mg:   ,0
#REFERENCE CRUCIBLE MASS /mg:,0
#DSC RANGE /‘V:              ,5000
#TG RANGE /mg:               ,35000
#TAU-R:                      ,---
#CORR. CODE:                 ,000
#EXO:                        ,-1
#RANGE:                      ,20›C....800›C/0.0....20.0K/min
#SEGMENT:                    ,S1-4/4
#SEG. 1:                     ,20›C/5.0(K/min)/100›C
#SEG. 2:                     ,100›C/00:05/100›C
#SEG. 3:                     ,100›C/1.0(K/min)/400›C
#SEG. 4:                     ,400›C/20.0(K/min)/800›C

##Temp./›C,Time/min,Mass/%,Sensit./(uV/mW),Segment
 30.07900,  0.00000,    100,0.92357,1
 33.59700,  2.40000,     91.60602,0.92418,1
 37.20000,  4.80000,     91.54466,0.92472,1
 45.60600,  7.20000,     92.50466,0.92565,1
 58.17100,  9.60000,     93.43165,0.92620,1
 72.68300, 12.00000,     93.98951,0.92560,1
 87.36800, 14.40000,     94.25320,0.92369,1
100.023, 16.58333,     94.16757,0.92102,2
105.576, 18.38333,     92.95495,0.91956,2
107.779, 20.18333,     92.07184,0.91894,2
107.658, 22.33333,     91.32272,0.91897,3
107.186, 24.73333,     90.91631,0.91911,3
107.332, 27.13333,     90.75146,0.91907,3
108.373, 29.53333,     90.73845,0.91876,3
110.208, 31.93333,     90.69883,0.91822,3
112.483, 34.33333,     90.66816,0.91751,3
114.98, 36.73333,     90.65495,0.91671,3
117.52, 39.13333,     90.59553,0.91585,3
120.052, 41.53333,     90.58893,0.91496,3
122.521, 43.93333,     90.54951,0.91407,3
124.977, 46.33333,     90.54291,0.91314,3
127.395, 48.73333,     90.51650,0.91220,3
129.812, 51.13333,     90.52971,0.91124,3
132.208, 53.53333,     90.54951,0.91024,3
134.608, 55.93333,     90.58233,0.90922,3
137.01, 58.33333,     90.63515,0.90817,3
139.401, 60.73333,     90.67456,0.90710,3
141.809, 63.13333,     90.72078,0.90599,3
144.224, 65.53333,     90.79320,0.90485,3
146.618, 67.93333,     90.83942,0.90369,3
149.027, 70.33333,     90.90524,0.90249,3
151.43, 72.73333,     90.97786,0.90128,3
153.831, 75.13333,     91.05689,0.90003,3
156.234, 77.53333,     91.08990,0.89876,3
158.642, 79.93333,     91.13592,0.89746,3
161.042, 82.33333,     91.20854,0.89614,3
163.44, 84.73333,     91.26777,0.89479,3
165.834, 87.13333,     91.32718,0.89343,3
168.243, 89.53333,     91.40621,0.89202,3
170.626, 91.93333,     91.45883,0.89061,3
173.032, 94.33333,     91.50505,0.88916,3
175.425, 96.73333,     91.53806,0.88770,3
177.825, 99.13333,     91.61709,0.88621,3
180.247,101.533,     91.68951,0.88468,3
182.636,103.933,     91.70932,0.88315,3
185.047,106.333,     91.77087,0.88158,3
187.44,108.733,     91.82583,0.88000,3
189.833,111.133,     91.87845,0.87840,3
192.239,113.533,     91.91806,0.87677,3
194.628,115.933,     91.97728,0.87513,3
197.026,118.333,     92.01029,0.87346,3
199.43,120.733,     92.06311,0.87177,3
201.833,123.133,     92.10913,0.87006,3
204.245,125.533,     92.16194,0.86833,3
206.624,127.933,     92.23223,0.86659,3
209.038,130.333,     92.28485,0.86482,3
211.415,132.733,     92.34194,0.86305,3
213.817,135.133,     92.35515,0.86124,3
216.243,137.533,     92.41456,0.85940,3
218.631,139.933,     92.44078,0.85757,3
221.026,142.333,     92.52000,0.85572,3
223.431,144.733,     92.52660,0.85384,3
225.834,147.133,     92.56602,0.85195,3
228.223,149.533,     92.58136,0.85005,3
230.619,151.933,     92.62757,0.84813,3
233.03,154.333,     92.65398,0.84618,3
235.419,156.733,     92.69340,0.84424,3
237.826,159.133,     92.73748,0.84227,3
240.21,161.533,     92.75068,0.84030,3
242.624,163.933,     92.80330,0.83829,3
245.02,166.333,     92.83631,0.83628,3
247.42,168.733,     92.81650,0.83426,3
249.831,171.133,     92.86932,0.83221,3
252.23,173.533,     92.87573,0.83016,3
254.617,175.933,     92.90000,0.82811,3
257.02,178.333,     92.90660,0.82603,3
259.426,180.733,     92.93301,0.82394,3
261.831,183.133,     92.93301,0.82184,3
264.211,185.533,     92.93728,0.81974,3
266.619,187.933,     92.95049,0.81762,3
269.019,190.333,     92.93728,0.81549,3
271.419,192.733,     92.94175,0.81335,3
273.817,195.133,     92.92854,0.81120,3
276.207,197.533,     92.93515,0.80905,3
278.595,199.933,     92.93515,0.80689,3
281.001,202.333,     92.89553,0.80471,3
283.415,204.733,     92.91534,0.80251,3
285.8,207.133,     92.90214,0.80033,3
288.2,209.533,     92.86932,0.79813,3
290.58,211.933,     92.86272,0.79594,3
292.993,214.333,     92.83631,0.79371,3
295.396,216.733,     92.78583,0.79149,3
297.805,219.133,     92.77029,0.78925,3
300.196,221.533,     92.74835,0.78702,3
302.606,223.933,     92.70233,0.78477,3
304.998,226.333,     92.65612,0.78253,3
307.413,228.733,     92.59689,0.78027,3
309.802,231.133,     92.53087,0.77802,3
312.2,233.533,     92.49146,0.77577,3
314.605,235.933,     92.39903,0.77350,3
317.011,238.333,     92.33320,0.77122,3
319.404,240.733,     92.24757,0.76896,3
321.805,243.133,     92.16854,0.76668,3
324.195,245.533,     92.04990,0.76441,3
326.605,247.933,     91.91592,0.76212,3
329.015,250.333,     91.77515,0.75983,3
331.392,252.733,     91.61709,0.75757,3
333.81,255.133,     91.40621,0.75526,3
336.211,257.533,     91.19301,0.75297,3
338.609,259.933,     90.89864,0.75069,3
341.009,262.333,     90.51204,0.74840,3
343.406,264.733,     90.10350,0.74611,3
345.793,267.133,     89.56971,0.74383,3
348.211,269.533,     88.89961,0.74152,3
350.609,271.933,     88.15049,0.73923,3
352.995,274.333,     87.06097,0.73695,3
355.391,276.733,     85.67476,0.73467,3
357.801,279.133,     83.90641,0.73237,3
360.192,281.533,     81.60408,0.73009,3
362.597,283.933,     78.68252,0.72780,3
364.996,286.333,     75.13689,0.72552,3
367.401,288.733,     70.73670,0.72323,3
369.796,291.133,     65.51942,0.72096,3
372.199,293.533,     59.16641,0.71868,3
374.576,295.933,     51.88835,0.71642,3
376.984,298.333,     43.88330,0.71414,3
379.386,300.733,     35.50699,0.71187,3
381.802,303.133,     27.10447,0.70960,3
384.196,305.533,     19.22019,0.70734,3
386.598,307.933,     12.38388,0.70508,3
389.008,310.333,      6.96427,0.70282,3
391.395,312.733,      3.05631,0.70058,3
393.801,315.133,      0.43340,0.69834,3
396.21,317.533,     -1.22971,0.69609,3
398.589,319.933,     -2.19184,0.69388,3
399.722,321.038,     -2.49495,0.69282,4
400.25,321.218,     -2.49495,0.69233,4
401.498,321.398,     -2.33029,0.69118,4
403.607,321.578,     -2.11709,0.68922,4
406.497,321.758,     -1.90175,0.68656,4
409.907,321.938,     -1.75456,0.68342,4
413.547,322.118,     -1.64913,0.68008,4
417.204,322.298,     -1.59437,0.67675,4
420.659,322.478,     -1.59437,0.67361,4
423.914,322.658,     -1.64699,0.67067,4
426.987,322.838,     -1.70194,0.66791,4
429.958,323.018,     -1.78097,0.66524,4
432.957,323.198,     -1.80738,0.66257,4
436.029,323.378,     -1.82718,0.65984,4
439.254,323.558,     -1.83379,0.65699,4
442.634,323.738,     -1.83379,0.65403,4
446.174,323.918,     -1.85359,0.65093,4
449.813,324.098,     -1.82718,0.64777,4
453.517,324.278,     -1.85359,0.64458,4
457.25,324.458,     -1.82718,0.64138,4
460.994,324.638,     -1.87981,0.63820,4
464.703,324.818,     -1.87981,0.63507,4
468.418,324.998,     -1.87981,0.63195,4
472.126,325.178,     -1.87981,0.62887,4
475.837,325.358,     -1.87981,0.62580,4
479.568,325.538,     -1.87981,0.62275,4
483.316,325.718,     -1.87981,0.61970,4
487.09,325.898,     -1.82718,0.61666,4
490.858,326.078,     -1.80078,0.61365,4
494.654,326.258,     -1.77437,0.61065,4
498.433,326.438,     -1.72175,0.60768,4
502.226,326.618,     -1.69534,0.60473,4
506.005,326.798,     -1.69534,0.60182,4
509.78,326.978,     -1.61631,0.59893,4
513.555,327.158,     -1.61631,0.59608,4
517.336,327.338,     -1.56136,0.59324,4
521.1,327.518,     -1.56796,0.59045,4
524.864,327.698,     -1.50854,0.58768,4
528.618,327.878,     -1.48233,0.58495,4
532.365,328.058,     -1.45592,0.58225,4
536.115,328.238,     -1.42951,0.57957,4
539.863,328.418,     -1.37689,0.57693,4
543.614,328.598,     -1.35049,0.57431,4
547.344,328.778,     -1.32408,0.57173,4
551.059,328.958,     -1.29767,0.56918,4
554.796,329.138,     -1.27126,0.56665,4
558.516,329.318,     -1.24505,0.56416,4
562.247,329.498,     -1.21204,0.56169,4
565.955,329.678,     -1.19223,0.55925,4
569.675,329.858,     -1.16583,0.55684,4
573.387,330.038,     -1.13961,0.55446,4
577.1,330.218,     -1.09340,0.55210,4
580.809,330.398,     -1.08680,0.54977,4
584.505,330.578,     -1.06039,0.54747,4
588.208,330.758,     -1.03417,0.54519,4
591.896,330.938,     -0.99670,0.54295,4
595.58,331.118,     -0.99670,0.54074,4
599.278,331.298,     -0.97049,0.53854,4
602.949,331.478,     -0.94408,0.53638,4
606.652,331.658,     -0.94408,0.53422,4
610.326,331.838,     -0.93087,0.53211,4
613.992,332.018,     -0.93087,0.53002,4
617.671,332.198,     -0.93087,0.52795,4
621.342,332.378,     -0.91767,0.52590,4
625.006,332.558,     -0.94408,0.52388,4
628.684,332.738,     -0.91107,0.52187,4
632.341,332.918,     -0.91107,0.51990,4
636.009,333.098,     -0.93748,0.51794,4
639.669,333.278,     -0.91107,0.51601,4
643.32,333.458,     -0.91107,0.51410,4
646.983,333.638,     -0.89126,0.51220,4
650.629,333.818,     -0.85845,0.51033,4
654.267,333.998,     -0.85845,0.50849,4
657.907,334.178,     -0.80563,0.50666,4
661.547,334.358,     -0.78583,0.50485,4
665.193,334.538,     -0.75301,0.50305,4
668.841,334.718,     -0.72660,0.50127,4
672.497,334.898,     -0.70019,0.49951,4
676.147,335.078,     -0.66058,0.49776,4
679.784,335.258,     -0.64738,0.49603,4
683.434,335.438,     -0.62117,0.49432,4
687.08,335.618,     -0.59476,0.49262,4
690.726,335.798,     -0.56835,0.49093,4
694.377,335.978,     -0.54194,0.48926,4
698.026,336.158,     -0.51573,0.48760,4
701.667,336.338,     -0.49592,0.48596,4
705.31,336.518,     -0.46291,0.48433,4
708.955,336.698,     -0.46291,0.48271,4
712.606,336.878,     -0.43650,0.48110,4
716.238,337.058,     -0.41029,0.47951,4
719.89,337.238,     -0.38388,0.47792,4
723.525,337.418,     -0.35748,0.47635,4
727.167,337.598,     -0.33107,0.47478,4
730.799,337.778,     -0.30485,0.47323,4
734.447,337.958,     -0.27845,0.47168,4
738.091,338.138,     -0.25204,0.47015,4
741.715,338.318,     -0.22563,0.46863,4
745.355,338.498,     -0.19942,0.46710,4
748.986,338.678,     -0.17301,0.46560,4
752.628,338.858,     -0.14660,0.46409,4
756.264,339.038,     -0.13340,0.46259,4
759.897,339.218,     -0.12019,0.46110,4
763.53,339.398,-9.398058e-02,0.45961,4
767.16,339.578,-6.757282e-02,0.45813,4
770.785,339.758,-1.475728e-02,0.45666,4
774.416,339.938,-1.475728e-02,0.45518,4
778.038,340.118, 1.165049e-02,0.45372,4
781.664,340.298, 3.786408e-02,0.45225,4
785.286,340.478, 3.786408e-02,0.45079,4
788.918,340.658, 7.747573e-02,0.44933,4
792.531,340.838, 7.747573e-02,0.44788,4
794.447,340.933,      0.11049,0.44711,4