File: data/TGA/commercial_samples/ExpDat_2025_09_08_SL_PS_Container-SCF3_Dynamic_P5EER5_V1_2.csv
#EXPORTTYPE:                 ,DATA ALL
#FILE:                       ,2025_09_08_SL_PS_Container-SCF3_Dynamic_P5EER5_V1_2.ngb-ss5
#FORMAT:                     ,NETZSCH5
#FTYPE:                      ,ASCII
#IDENTITY:                   ,P5EER5_V1+2
#DECIMAL:                    ,POINT
#SEPARATOR:                  ,COMMA
#MTYPE:                      ,DSC
#INSTRUMENT:                 ,NETZSCH STA 449F5
#PROJECT:                    ,PS-SCF3
#DATE/TIME:                  ,9/8/2025 4:49:01 PM (UTC-4)
#CORR. FILE:                 ,
#TEMPCAL:                    ,05-05-2025 14:38
#SENSITIVITY:                ,28-06-2023 13:53
#LABORATORY:                 ,Tran
#OPERATOR:                   ,Stanley
#REMARK:                     ,2025_03_20_Styrofoam_dynamic
#SAMPLE:                     ,P5EER5_V1+2
#SAMPLE MASS /mg:            ,4.63
#MATERIAL:                   ,Polystyrene
#REFERENCE:                  ,
#REFERENCE MASS /mg:         ,0
#TYPE OF CRUCIBLE:           ,Al2O3 85 ‘l, open
#SAMPLE CRUCIBLE MASS /mg:   ,0
#REFERENCE CRUCIBLE MASS /mg:,0
#DSC RANGE /‘V:              ,5000
#TG RANGE /mg:               ,35000
#TAU-R:                      ,---
#CORR. CODE:                 ,000
#EXO:                        ,-1
#RANGE:                      ,20›C....800›C/0.0....20.0K/min
#SEGMENT:                    ,S1-4/4
#SEG. 1:                     ,20›C/5.0(K/min)/100›C
#SEG. 2:                     ,100›C/00:05/100›C
#SEG. 3:                     ,100›C/1.0(K/min)/400›C
#SEG. 4:                     ,400›C/20.0(K/min)/800›C

##Temp./›C,Time/min,DSC/(mW/mg),Mass/%,Gas Flow(purge2)/(ml/min),Gas Flow(protective)/(ml/min),TIC(scan:1)/A,Sensit./(uV/mW),Segment
 38.58900,  0.00000,      3.10036,    100,50.00000,38.00000,            ,0.92490,1
 53.67300,  5.00000,-5.248855e-02,     85.19719,50.00000,34.00000,6.883474e-09,0.92603,1
 52.75500, 10.00000,      0.33220,     85.66393,50.00000,34.00000,6.907893e-09,0.92613,1
 80.15700, 15.00000,      1.60454,     89.92786,50.00000,34.00000,6.935572e-09,0.92610,1
102.296, 19.00000,      0.87328,     89.01145,50.00000,34.00000,6.929672e-09,0.92604,2
107.17, 23.33333,      0.11474,     87.43801,50.00000,34.00000,6.954463e-09,0.92602,3
108.311, 28.33333,      0.11173,     87.14968,50.00000,34.00000,6.938972e-09,0.92619,3
111.719, 33.33333,      0.24060,     87.21555,50.00000,34.00000,6.946723e-09,0.92600,3
116.623, 38.33333,      0.29048,     87.31080,50.00000,34.00000,6.937248e-09,0.92472,3
121.827, 43.33333,      0.29178,     87.33780,50.00000,34.00000,6.947948e-09,0.92267,3
126.927, 48.33333,      0.28590,     87.37927,50.00000,34.00000,6.955449e-09,0.92107,3
131.944, 53.33333,      0.28111,     87.47711,50.00000,34.00000,6.943274e-09,0.91995,3
136.946, 58.33333,      0.27796,     87.52354,50.00000,34.00000,6.942657e-09,0.91939,3
141.944, 63.33333,      0.27611,     87.65529,50.00000,34.00000,6.937007e-09,0.91912,3
146.959, 68.33333,      0.27758,     87.74082,50.00000,34.00000,6.934325e-09,0.91902,3
151.954, 73.33333,      0.27268,     87.87041,50.00000,34.00000,6.937574e-09,0.91890,3
156.971, 78.33333,      0.27257,     88.02678,50.00000,34.00000,6.931152e-09,0.91867,3
161.967, 83.33333,      0.26935,     88.12203,50.00000,34.00000,6.943754e-09,0.91829,3
166.975, 88.33333,      0.26726,     88.25162,50.00000,34.00000,6.946786e-09,0.91783,3
171.96, 93.33333,      0.26315,     88.37862,50.00000,34.00000,6.943176e-09,0.91724,3
176.936, 98.33333,      0.25737,     88.49352,50.00000,34.00000,6.940840e-09,0.91661,3
181.938,103.333,      0.24859,     88.55464,50.00000,34.00000,6.935039e-09,0.91592,3
186.947,108.333,      0.24015,     88.69633,50.00000,34.00000,6.933211e-09,0.91522,3
191.947,113.333,      0.22642,     88.73045,50.00000,34.00000,6.934159e-09,0.91447,3
196.947,118.333,      0.21430,     88.86501,50.00000,34.00000,6.925902e-09,0.91374,3
201.944,123.333,      0.19945,     88.96026,50.00000,34.00000,6.929985e-09,0.91296,3
206.951,128.333,      0.18545,     89.06285,50.00000,34.00000,6.917338e-09,0.91221,3
211.957,133.333,      0.16542,     89.15335,50.00000,34.00000,6.922568e-09,0.91140,3
216.946,138.333,      0.14888,     89.22894,50.00000,34.00000,6.928988e-09,0.91061,3
221.949,143.333,      0.12893,     89.31706,50.00000,34.00000,6.904523e-09,0.90976,3
226.944,148.333,      0.10862,     89.36350,50.00000,34.00000,6.916091e-09,0.90893,3
231.928,153.333, 8.870572e-02,     89.46112,50.00000,34.00000,6.931825e-09,0.90805,3
236.939,158.333, 6.724232e-02,     89.53931,50.00000,34.00000,6.922276e-09,0.90719,3
241.93,163.333, 5.048350e-02,     89.59546,50.00000,34.00000,6.915363e-09,0.90626,3
246.939,168.333, 2.625729e-02,     89.65421,50.00000,34.00000,6.924957e-09,0.90536,3
251.933,173.333, 2.778066e-03,     89.65421,50.00000,34.00000,6.929467e-09,0.90441,3
256.919,178.333,-1.675508e-02,     89.71771,50.00000,34.00000,6.927374e-09,0.90346,3
261.939,183.333,-3.990497e-02,     89.75918,50.00000,34.00000,6.919928e-09,0.90246,3
266.931,188.333,-6.310301e-02,     89.73002,50.00000,35.00000,6.932438e-09,0.90148,3
271.93,193.333,-8.655759e-02,     89.71037,50.00000,35.00000,6.915099e-09,0.90049,3
276.933,198.333,     -0.11313,     89.71274,50.00000,35.00000,6.927737e-09,0.89944,3
281.927,203.333,     -0.14185,     89.69093,50.00000,35.00000,6.927479e-09,0.89841,3
286.919,208.333,     -0.17338,     89.64687,50.00000,35.00000,6.911189e-09,0.89732,3
291.924,213.333,     -0.20611,     89.58812,50.00000,35.00000,6.917838e-09,0.89625,3
296.923,218.333,     -0.24152,     89.54428,50.00000,35.00000,6.906373e-09,0.89514,3
301.932,223.333,     -0.27715,     89.37797,50.00000,35.00000,6.926771e-09,0.89404,3
306.913,228.333,     -0.31321,     89.25832,50.00000,35.00000,6.912182e-09,0.89288,3
311.925,233.333,     -0.35015,     89.06782,50.00000,35.00000,6.922241e-09,0.89176,3
316.923,238.333,     -0.38733,     88.77948,50.00000,35.00000,6.911907e-09,0.89057,3
321.93,243.333,     -0.42176,     88.41771,50.00000,35.00000,6.913484e-09,0.88941,3
326.93,248.333,     -0.46094,     87.97797,50.00000,35.00000,6.921822e-09,0.88820,3
331.939,253.333,     -0.49497,     87.31814,50.00000,35.00000,6.915214e-09,0.88701,3
336.929,258.333,     -0.53358,     86.44341,50.00000,35.00000,6.914062e-09,0.88577,3
341.929,263.333,     -0.56543,     85.23153,50.00000,35.00000,6.901063e-09,0.88449,3
346.914,268.333,     -0.59811,     83.46976,50.00000,35.00000,6.915345e-09,0.88325,3
351.937,273.333,     -0.63370,     80.93326,50.00000,36.00000,6.908912e-09,0.88195,3
356.916,278.333,     -0.64343,     77.26328,50.00000,36.00000,6.922218e-09,0.88068,3
361.928,283.333,     -0.59313,     71.80691,50.00000,36.00000,6.910633e-09,0.87935,3
366.937,288.333,     -0.60888,     64.45680,50.00000,36.00000,6.910126e-09,0.87804,3
371.924,293.333,     -0.63924,     54.52160,50.00000,36.00000,6.912990e-09,0.87674,3
376.92,298.333,     -0.69055,     41.98898,50.00000,36.00000,6.913486e-09,0.87536,3
381.922,303.333,     -0.80059,     28.23434,50.00000,36.00000,6.901759e-09,0.87398,3
386.917,308.333,     -0.98829,     15.44039,50.00000,36.00000,6.905525e-09,0.87262,3
391.918,313.333,     -1.23122,      5.92786,50.00000,36.00000,6.912130e-09,0.87126,3
396.916,318.333,     -1.49610,      0.43715,50.00000,36.00000,6.912726e-09,0.86984,3
399.832,321.175,     -1.61566,     -1.23909,50.00000,36.00000,6.907484e-09,0.86903,4
402.195,321.55,     -0.44099,     -1.01663,50.00000,36.00000,6.918219e-09,0.86893,4
408.034,321.925,      2.05466,     -0.54752,50.00000,36.00000,6.914737e-09,0.86883,4
415.589,322.3,      3.95956,     -0.42527,50.00000,36.00000,6.904178e-09,0.86873,4
422.794,322.675,      4.37124,     -0.57192,50.00000,36.00000,6.892585e-09,0.86859,4
429.176,323.05,      3.96425,     -0.86263,50.00000,36.00000,6.928376e-09,0.86850,4
435.412,323.425,      3.72537,     -1.04104,50.00000,36.00000,6.910561e-09,0.86839,4
442.237,323.8,      3.98172,     -1.18035,50.00000,36.00000,6.906919e-09,0.86831,4
449.731,324.175,      4.45068,     -1.21706,50.00000,36.00000,6.911705e-09,0.86820,4
457.532,324.55,      4.74780,     -1.24644,50.00000,36.00000,6.908100e-09,0.86806,4
465.339,324.925,      4.78427,     -1.30497,50.00000,36.00000,6.910331e-09,0.86796,4
473.086,325.3,      4.70255,     -1.24644,50.00000,36.00000,6.921275e-09,0.86786,4
480.853,325.675,      4.64234,     -1.21706,50.00000,36.00000,6.906377e-09,0.86776,4
488.73,326.05,      4.62252,     -1.12916,50.00000,36.00000,6.908488e-09,0.86762,4
496.645,326.425,      4.59056,     -1.03866,50.00000,36.00000,6.914223e-09,0.86753,4
504.568,326.8,      4.50846,     -0.96285,50.00000,36.00000,6.927239e-09,0.86743,4
512.444,327.175,      4.39151,     -0.90432,50.00000,36.00000,6.906354e-09,0.86732,4
520.301,327.55,      4.26955,     -0.83089,50.00000,36.00000,6.913882e-09,0.86723,4
528.148,327.925,      4.15382,     -0.73326,50.00000,36.00000,6.927941e-09,0.86709,4
535.99,328.3,      4.03552,     -0.66717,50.00000,36.00000,6.926421e-09,0.86700,4
543.814,328.675,      3.91400,     -0.60864,50.00000,36.00000,6.918539e-09,0.86689,4
551.627,329.05,      3.78814,     -0.52052,50.00000,36.00000,6.930411e-09,0.86680,4
559.4,329.425,      3.65281,     -0.49136,50.00000,36.00000,6.920579e-09,0.86670,4
567.17,329.8,      3.52100,     -0.40324,50.00000,36.00000,6.913145e-09,0.86655,4
574.924,330.175,      3.39760,     -0.34471,50.00000,36.00000,6.912277e-09,0.86646,4
582.673,330.55,      3.26617,     -0.28596,50.00000,36.00000,6.917221e-09,0.86635,4
590.397,330.925,      3.12893,     -0.19568,50.00000,36.00000,6.914786e-09,0.86625,4
598.081,331.3,      2.98794,     -0.12225,50.00000,36.00000,6.911642e-09,0.86617,4
605.762,331.675,      2.85721,-4.902808e-02,50.00000,36.00000,6.925882e-09,0.86602,4
613.435,332.05,      2.72433, 2.419006e-02,50.00000,36.00000,6.928742e-09,0.86592,4
621.089,332.425,      2.59433, 7.062635e-02,50.00000,36.00000,6.916787e-09,0.86582,4
628.744,332.8,      2.46016,      0.12937,50.00000,36.00000,6.908779e-09,0.86572,4
636.374,333.175,      2.32303,      0.21728,50.00000,36.00000,6.903849e-09,0.86557,4
643.999,333.55,      2.17755,      0.24665,50.00000,36.00000,6.907732e-09,0.86547,4
651.613,333.925,      2.04687,      0.30518,50.00000,36.00000,6.936777e-09,0.86538,4
659.243,334.3,      1.91781,      0.36393,50.00000,36.00000,6.916942e-09,0.86528,4
666.869,334.675,      1.80027,      0.45184,50.00000,36.00000,6.904703e-09,0.86518,4
674.481,335.05,      1.65193,      0.48121,50.00000,36.00000,6.902188e-09,0.86504,4
682.067,335.425,      1.49215,      0.56911,50.00000,36.00000,6.908069e-09,0.86494,4
689.671,335.8,      1.35402,      0.62786,50.00000,36.00000,6.923926e-09,0.86483,4
697.273,336.175,      1.20866,      0.68639,50.00000,36.00000,6.933491e-09,0.86474,4
704.858,336.55,      1.04237,      0.71577,50.00000,36.00000,6.919423e-09,0.86458,4
712.453,336.925,      0.88390,      0.80367,50.00000,36.00000,6.907814e-09,0.86447,4
720.035,337.3,      0.70967,      0.83305,50.00000,36.00000,6.920606e-09,0.86437,4
727.614,337.675,      0.52741,      0.89179,50.00000,36.00000,6.911840e-09,0.86428,4
735.184,338.05,      0.32546,      0.95032,50.00000,36.00000,6.932203e-09,0.86418,4
742.761,338.425,      0.10981,      0.97970,50.00000,36.00000,6.915660e-09,0.86404,4
750.341,338.8,     -0.11764,      1.04557,50.00000,36.00000,6.905609e-09,0.86394,4
757.897,339.175,     -0.37279,      1.10432,50.00000,36.00000,6.927988e-09,0.86384,4
765.511,339.55,     -0.62350,      1.16285,50.00000,36.00000,6.910048e-09,0.86374,4
773.077,339.925,     -0.91263,      1.22160,50.00000,36.00000,6.925615e-09,0.86364,4
780.642,340.3,     -1.20820,      1.28013,50.00000,36.00000,6.911542e-09,0.86349,4
788.191,340.675,     -1.49783,      1.30216,50.00000,36.00000,6.911081e-09,0.86338,4
794.745,341,     -1.75770,      1.36091,50.00000,36.00000,            ,0.44699,4