File: data/TGA/commercial_samples/ExpDat_2025_07_25_SL_PS_Red_Solo_Cup_Isothermal.csv
#EXPORTTYPE:                 ,DATA ALL
#FILE:                       ,2025_07_25_SL_PS_Red_Solo_Cup_Isothermal.ngb-ss5
#FORMAT:                     ,NETZSCH5
#FTYPE:                      ,ASCII
#IDENTITY:                   ,PS-Red-Solo-Cup
#DECIMAL:                    ,POINT
#SEPARATOR:                  ,COMMA
#MTYPE:                      ,DSC
#INSTRUMENT:                 ,NETZSCH STA 449F5
#PROJECT:                    ,
#DATE/TIME:                  ,7/25/2025 9:05:09 AM (UTC-4)
#CORR. FILE:                 ,
#TEMPCAL:                    ,05-05-2025 14:38
#SENSITIVITY:                ,28-06-2023 13:53
#LABORATORY:                 ,Tran/AAG
#OPERATOR:                   ,Stanley
#REMARK:                     ,2025_03_29_SL_005d_M1_isothermal
#SAMPLE:                     ,PS-Red-Solo-Cup
#SAMPLE MASS /mg:            ,4.32
#MATERIAL:                   ,Polystyrene
#REFERENCE:                  ,
#REFERENCE MASS /mg:         ,0
#TYPE OF CRUCIBLE:           ,Al2O3 85 ‘l, open
#SAMPLE CRUCIBLE MASS /mg:   ,0
#REFERENCE CRUCIBLE MASS /mg:,0
#DSC RANGE /‘V:              ,5000
#TG RANGE /mg:               ,35000
#TAU-R:                      ,---
#CORR. CODE:                 ,000
#EXO:                        ,-1
#RANGE:                      ,30›C....800›C/0.0....20.0K/min
#SEGMENT:                    ,S1-5/5
#SEG. 1:                     ,30›C/10.0(K/min)/100›C
#SEG. 2:                     ,100›C/00:10/100›C
#SEG. 3:                     ,100›C/5.0(K/min)/300›C
#SEG. 4:                     ,300›C/20:00/300›C
#SEG. 5:                     ,300›C/20.0(K/min)/800›C

##Temp./›C,Time/min,DSC/(mW/mg),Mass/%,Gas Flow(purge2)/(ml/min),Gas Flow(protective)/(ml/min),TIC(scan:1)/A,Sensit./(uV/mW),Segment
 29.98400,   0.00000,      0.72226,100,50.00000,50.00000,            ,0.92355,1
 71.62800,   6.08000,      3.39538, 95.15509,50.00000,50.00000,1.741448e-08,0.92431,1
102.563,   9.56000,      1.85457, 93.27477,50.00000,50.00000,1.745272e-08,0.92491,2
109.657,  12.60000,      0.24461, 90.98079,50.00000,50.00000,1.740735e-08,0.92540,2
108.185,  15.64000,     -0.51647, 89.19213,50.00000,50.00000,1.741920e-08,0.92584,2
110.878,  20.40000,      1.07136, 90.18981,50.00000,50.00000,1.736975e-08,0.92620,3
142.214,  26.48000,      2.79397, 92.15139,50.00000,50.00000,1.733666e-08,0.92553,3
176.362,  32.56000,      2.97563, 92.61227,50.00000,50.00000,1.730724e-08,0.92389,3
207.305,  38.64000,      3.21690, 92.97616,50.00000,50.00000,1.727897e-08,0.92252,3
237.548,  44.72000,      3.59567, 93.31412,50.00000,50.00000,1.728998e-08,0.92138,3
267.834,  50.80000,      3.96301, 93.46343,50.00000,50.00000,1.725626e-08,0.92049,3
298.123,  56.88000,      4.25895, 93.31412,50.00000,50.00000,1.723805e-08,0.91970,3
300.399,  71.96000,      0.91240, 92.49190,50.00000,29.00000,1.723664e-08,0.91852,4
300.012,  87.16000,      0.99252, 91.36574,50.00000,28.00000,1.717088e-08,0.91838,4
300.006, 102.36,      0.99453, 90.78171,50.00000,28.00000,1.714369e-08,0.91879,4
300.02, 117.56,      0.98961, 90.39676,50.00000,28.00000,1.709751e-08,0.91944,4
300.016, 132.76,      0.98714, 90.21343,50.00000,27.00000,1.713880e-08,0.91688,4
300.01, 147.96,      0.99207, 90.01968,50.00000,27.00000,1.709696e-08,0.90981,4
300.001, 163.16,      0.99318, 89.94884,50.00000,27.00000,1.707278e-08,0.89974,4
300.019, 178.36,      0.99544, 89.81528,50.00000,27.00000,1.705755e-08,0.88856,4
300.013, 193.56,      0.99028, 89.69236,50.00000,27.00000,1.702776e-08,0.87650,4
300.021, 208.76,      0.99074, 89.59537,50.00000,28.00000,1.696090e-08,0.86359,4
300.02, 223.96,      0.98939, 89.49329,50.00000,28.00000,1.692366e-08,0.84974,4
300.001, 239.16,      0.98824, 89.38843,50.00000,28.00000,1.695089e-08,0.83502,4
300.014, 254.36,      0.98961, 89.43032,50.00000,27.00000,1.703880e-08,0.81954,4
300.007, 269.56,      0.98646, 89.43287,50.00000,27.00000,1.704133e-08,0.80345,4
300.018, 284.76,      0.98512, 89.33611,50.00000,27.00000,1.703467e-08,0.78556,4
300.004, 299.96,      0.98870, 89.31250,50.00000,26.00000,1.704327e-08,0.78599,4
300.008, 315.16,      0.98556, 89.26019,50.00000,26.00000,1.704927e-08,0.78706,4
300.034, 330.36,      0.98851, 89.17894,50.00000,26.00000,1.701195e-08,0.78719,4
300.006, 345.56,      0.98847, 89.18935,50.00000,25.00000,1.706001e-08,0.78720,4
300.007, 360.76,      0.98444, 89.11875,50.00000,25.00000,1.704769e-08,0.78720,4
300.018, 375.96,      0.98131, 89.05856,50.00000,24.00000,1.701996e-08,0.78720,4
300.02, 391.16,      0.99096, 88.95903,50.00000,24.00000,1.703538e-08,0.78720,4
300.013, 406.36,      0.98960, 88.99051,50.00000,24.00000,1.700862e-08,0.78719,4
299.999, 421.56,      0.98690, 88.83056,50.00000,24.00000,1.702134e-08,0.78718,4
300.023, 436.76,      0.99164, 88.69444,50.00000,24.00000,1.694297e-08,0.78719,4
300.013, 451.96,      0.99207, 88.60532,50.00000,24.00000,1.698444e-08,0.78720,4
300.029, 467.16,      0.99389, 88.57917,50.00000,24.00000,1.693287e-08,0.78719,4
300.004, 482.36,      0.99677, 88.56875,50.00000,24.00000,1.702565e-08,0.78718,4
300.016, 497.56,      0.99567, 88.53727,50.00000,24.00000,1.702567e-08,0.78719,4
300.019, 512.76,      0.99589, 88.49282,50.00000,24.00000,1.703106e-08,0.78719,4
300.026, 527.96,      0.99299, 88.49282,50.00000,24.00000,1.699489e-08,0.78720,4
300.011, 543.16,      0.99723, 88.40370,50.00000,23.00000,1.694411e-08,0.78721,4
300.002, 558.36,      0.99296, 88.36458,50.00000,23.00000,1.697332e-08,0.78718,4
300.027, 573.56,      0.99142, 88.35926,50.00000,23.00000,1.695897e-08,0.78718,4
300.031, 588.76,      0.99389, 88.30417,50.00000,23.00000,1.687543e-08,0.78719,4
300.024, 603.96,      0.99276, 88.24144,50.00000,23.00000,1.678627e-08,0.78720,4
300.019, 619.16,      0.99544, 88.25440,50.00000,23.00000,1.680220e-08,0.78719,4
300.022, 634.36,      0.99455, 88.21782,50.00000,23.00000,1.674772e-08,0.78720,4
300.009, 649.56,      0.99386, 88.23356,50.00000,23.00000,1.675791e-08,0.78719,4
300.01, 664.76,      0.99117, 88.18380,50.00000,23.00000,1.671341e-08,0.78720,4
300.014, 679.96,      0.99140, 88.16806,50.00000,23.00000,1.672275e-08,0.78720,4
300.009, 695.16,      0.99454, 88.16551,50.00000,23.00000,1.675900e-08,0.78719,4
300.009, 710.36,      0.99364, 88.11829,50.00000,23.00000,1.673694e-08,0.78719,4
300.02, 725.56,      0.99500, 88.15231,50.00000,23.00000,1.675115e-08,0.78720,4
300.019, 740.76,      0.99141, 88.03704,50.00000,23.00000,1.673440e-08,0.78717,4
300.004, 755.96,      0.99520, 87.86944,50.00000,25.00000,1.676067e-08,0.78719,4
300.003, 771.16,      0.99229, 87.79630,50.00000,27.00000,1.672254e-08,0.78720,4
300.024, 786.36,      0.99388, 87.74120,50.00000,27.00000,1.672653e-08,0.78719,4
300.025, 801.56,      0.99074, 87.68889,50.00000,28.00000,1.673352e-08,0.78719,4
300.032, 816.76,      0.99613, 87.72801,50.00000,28.00000,1.673228e-08,0.78719,4
300.021, 831.96,      0.99343, 87.70463,50.00000,28.00000,1.673355e-08,0.78720,4
300.02, 847.16,      0.99275, 87.72037,50.00000,28.00000,1.672228e-08,0.78719,4
300.019, 862.36,      0.99253, 87.75440,50.00000,28.00000,1.669081e-08,0.78720,4
300.014, 877.56,      0.99028, 87.78310,50.00000,27.00000,1.674475e-08,0.78718,4
300.004, 892.76,      0.99251, 87.89583,50.00000,26.00000,1.671986e-08,0.78720,4
300.03, 907.96,      0.99389, 87.88519,50.00000,25.00000,1.669884e-08,0.78718,4
300.015, 923.16,      0.99275, 87.84606,50.00000,25.00000,1.670582e-08,0.78720,4
300.014, 938.36,      0.99050, 87.85648,50.00000,25.00000,1.670291e-08,0.78718,4
300.012, 953.56,      0.99409, 87.83032,50.00000,24.00000,1.669493e-08,0.78719,4
300.006, 968.76,      0.99610, 87.82245,50.00000,24.00000,1.666014e-08,0.78718,4
300.011, 983.96,      0.99835, 87.78310,50.00000,24.00000,1.666205e-08,0.78718,4
300.013, 999.16,      1.00082, 87.74653,50.00000,24.00000,1.668952e-08,0.78721,4
300.016,1014.36,      0.99679, 87.73333,50.00000,24.00000,1.667551e-08,0.78720,4
300.004,1029.56,      0.99924, 87.70972,50.00000,24.00000,1.664582e-08,0.78717,4
300.007,1044.76,      0.99700, 87.64699,50.00000,24.00000,1.664232e-08,0.78720,4
300.008,1059.96,      0.99700, 87.59977,50.00000,24.00000,1.665224e-08,0.78718,4
300.02,1075.16,      0.99859, 87.58403,50.00000,24.00000,1.665819e-08,0.78719,4
300.017,1090.36,      0.99589, 87.56042,50.00000,23.00000,1.665128e-08,0.78719,4
300.017,1105.56,      0.99656, 87.55255,50.00000,23.00000,1.663922e-08,0.78720,4
300.02,1120.76,      0.99388, 87.52639,50.00000,24.00000,1.665635e-08,0.78719,4
300.025,1135.96,      0.99590, 87.50301,50.00000,23.00000,1.664155e-08,0.78720,4
300.02,1151.16,      0.99679, 87.47407,50.00000,23.00000,1.665908e-08,0.78719,4
300.015,1166.36,      0.99903, 87.45046,50.00000,23.00000,1.660174e-08,0.78719,4
300.016,1181.56,      0.99252, 87.40347,50.00000,23.00000,1.659940e-08,0.78718,4
300.009,1196.76,      0.99566, 87.40347,50.00000,23.00000,1.661764e-08,0.78719,4
300.015,1211.96,      0.99611, 87.37986,50.00000,23.00000,1.657167e-08,0.78719,4
300.022,1227.16,      0.99792, 87.37199,50.00000,23.00000,1.658809e-08,0.78719,4
300.031,1242.36,      0.99905, 87.35880,50.00000,23.00000,1.660472e-08,0.78719,4
300.009,1256.99,      0.99409, 87.33009,50.00000,50.00000,1.659005e-08,0.78719,5
304.059,1257.75,      5.00977, 86.75926,50.00000,50.00000,1.658820e-08,0.78719,5
316.835,1258.51,     11.47202, 87.14144,50.00000,50.00000,1.661020e-08,0.78719,5
329.831,1259.27,     12.55493, 87.48449,50.00000,50.00000,1.656917e-08,0.78719,5
343.602,1260.03,     14.01756, 87.94537,50.00000,50.00000,1.658181e-08,0.78719,5
359.635,1260.79,     16.20254, 88.41435,50.00000,50.00000,1.660171e-08,0.78720,5
376.095,1261.55,     17.11585, 88.71019,50.00000,50.00000,1.657813e-08,0.78720,5
392.639,1262.31,     17.69949, 88.81227,50.00000,50.00000,1.655654e-08,0.78720,5
409.333,1263.07,     18.11522, 88.16806,50.00000,50.00000,1.657425e-08,0.78719,5
425.878,1263.83,     18.15933, 84.52523,50.00000,50.00000,1.657933e-08,0.78720,5
442.214,1264.59,     20.43247, 70.26829,50.00000,50.00000,1.656016e-08,0.78719,5
458.318,1265.35,     22.68573, 39.06227,50.00000,50.00000,1.660722e-08,0.78719,5
474.293,1266.11,     20.54017, 17.47778,50.00000,50.00000,1.662113e-08,0.78719,5
490.121,1266.87,     18.32253, 10.73426,50.00000,50.00000,1.657163e-08,0.78719,5
505.836,1267.63,     17.56779,  9.00833,50.00000,50.00000,1.660140e-08,0.78720,5
521.37,1268.39,     17.26034,  9.00046,50.00000,50.00000,1.660197e-08,0.78719,5
536.814,1269.15,     17.13947,  9.19699,50.00000,50.00000,1.661857e-08,0.78719,5
552.201,1269.91,     17.02967,  9.38542,50.00000,50.00000,1.660697e-08,0.78719,5
567.533,1270.67,     16.92427,  9.57407,50.00000,50.00000,1.659684e-08,0.78719,5
582.869,1271.43,     16.82978,  9.76273,50.00000,50.00000,1.661520e-08,0.78718,5
598.16,1272.19,     16.70198,  9.95648,50.00000,50.00000,1.662612e-08,0.78719,5
613.424,1272.95,     16.63529, 10.10579,50.00000,50.00000,1.657687e-08,0.78719,5
628.708,1273.71,     16.67344, 10.20000,50.00000,50.00000,1.662860e-08,0.78719,5
643.995,1274.47,     16.70783, 10.28634,50.00000,50.00000,1.660181e-08,0.78720,5
659.213,1275.23,     16.82619, 10.28634,50.00000,50.00000,1.660319e-08,0.78720,5
674.463,1275.99,     17.08313,  9.99838,50.00000,50.00000,1.661171e-08,0.78719,5
689.736,1276.75,     17.20645,  9.51389,50.00000,50.00000,1.656664e-08,0.78718,5
705.038,1277.51,     17.11211,  9.02662,50.00000,50.00000,1.657819e-08,0.78719,5
720.324,1278.27,     16.87955,  8.70718,50.00000,50.00000,1.660055e-08,0.78719,5
735.608,1279.03,     16.49561,  8.62083,50.00000,50.00000,1.657961e-08,0.78719,5
750.882,1279.79,     16.08765,  8.74653,50.00000,50.00000,1.659832e-08,0.78719,5
766.154,1280.55,     15.64632,  8.90370,50.00000,50.00000,1.657326e-08,0.78719,5
781.428,1281.31,     15.15533,  9.09213,50.00000,50.00000,1.661722e-08,0.78719,5
794.097,1281.94,     14.70611,  9.21782,50.00000,50.00000,            ,0.44725,5