File: data/TGA/commercial_samples/ExpDat_2025_07_22_SL_PS_Red_Solo_Cup_Dynamic.csv
#EXPORTTYPE:                 ,DATA ALL
#FILE:                       ,2025_07_22_SL_PS_Red_Solo_Cup_Dynamic.ngb-ss5
#FORMAT:                     ,NETZSCH5
#FTYPE:                      ,ASCII
#IDENTITY:                   ,PS-Red-Solo-Cup
#DECIMAL:                    ,POINT
#SEPARATOR:                  ,COMMA
#MTYPE:                      ,DSC
#INSTRUMENT:                 ,NETZSCH STA 449F5
#PROJECT:                    ,
#DATE/TIME:                  ,7/22/2025 5:22:39 PM (UTC-4)
#CORR. FILE:                 ,
#TEMPCAL:                    ,05-05-2025 14:38
#SENSITIVITY:                ,28-06-2023 13:53
#LABORATORY:                 ,Tran/AAG
#OPERATOR:                   ,Stanley
#REMARK:                     ,2025_03_20_Styrofoam_dynamic
#SAMPLE:                     ,PS-Red-Solo-Cup
#SAMPLE MASS /mg:            ,4.63
#MATERIAL:                   ,Polystyrene
#REFERENCE:                  ,
#REFERENCE MASS /mg:         ,0
#TYPE OF CRUCIBLE:           ,Al2O3 85 ‘l, open
#SAMPLE CRUCIBLE MASS /mg:   ,0
#REFERENCE CRUCIBLE MASS /mg:,0
#DSC RANGE /‘V:              ,5000
#TG RANGE /mg:               ,35000
#TAU-R:                      ,---
#CORR. CODE:                 ,000
#EXO:                        ,-1
#RANGE:                      ,20›C....800›C/0.0....20.0K/min
#SEGMENT:                    ,S1-4/4
#SEG. 1:                     ,20›C/5.0(K/min)/100›C
#SEG. 2:                     ,100›C/00:05/100›C
#SEG. 3:                     ,100›C/1.0(K/min)/400›C
#SEG. 4:                     ,400›C/20.0(K/min)/800›C

##Temp./›C,Time/min,DSC/(mW/mg),Mass/%,Gas Flow(purge2)/(ml/min),Gas Flow(protective)/(ml/min),TIC(scan:1)/A,Sensit./(uV/mW),Segment
 28.92000,  0.00000,-5.710747e-03,100,50.00000,41.00000,            ,0.92335,1
 37.01200,  4.80000,-5.007469e-02, 91.46242,50.00000,35.00000,1.706406e-08,0.92401,1
 58.28400,  9.60000,      0.25797, 93.39762,50.00000,35.00000,1.706017e-08,0.92438,1
 87.46400, 14.40000,      0.46865, 94.26263,50.00000,35.00000,1.709307e-08,0.92500,1
105.481, 18.38333,      0.15070, 92.84060,50.00000,35.00000,1.707885e-08,0.92565,2
107.449, 22.33333,     -0.12372, 91.07387,50.00000,35.00000,1.703227e-08,0.92612,3
107.241, 27.13333,-5.611693e-02, 90.47041,50.00000,35.00000,1.701837e-08,0.92609,3
110.247, 31.93333, 3.966085e-02, 90.40929,50.00000,35.00000,1.701034e-08,0.92527,3
115.02, 36.73333, 8.502504e-02, 90.31404,50.00000,34.00000,1.703736e-08,0.92360,3
120.076, 41.53333,      0.10536, 90.25767,50.00000,34.00000,1.699150e-08,0.92145,3
125.003, 46.33333,      0.12686, 90.21382,50.00000,34.00000,1.699451e-08,0.92001,3
129.82, 51.13333,      0.14720, 90.19417,50.00000,34.00000,1.698241e-08,0.91927,3
134.635, 55.93333,      0.17199, 90.27235,50.00000,34.00000,1.696376e-08,0.91896,3
139.42, 60.73333,      0.19837, 90.35788,50.00000,34.00000,1.694425e-08,0.91903,3
144.228, 65.53333,      0.22309, 90.47279,50.00000,34.00000,1.693960e-08,0.91913,3
149.029, 70.33333,      0.24941, 90.61944,50.00000,34.00000,1.692963e-08,0.91915,3
153.843, 75.13333,      0.27371, 90.74406,50.00000,34.00000,1.692150e-08,0.91901,3
158.647, 79.93333,      0.30002, 90.89546,50.00000,34.00000,1.691861e-08,0.91869,3
163.467, 84.73333,      0.32688, 90.98596,50.00000,34.00000,1.687574e-08,0.91826,3
168.266, 89.53333,      0.35339, 91.14708,50.00000,34.00000,1.692498e-08,0.91770,3
173.055, 94.33333,      0.37973, 91.29633,50.00000,34.00000,1.690010e-08,0.91710,3
177.863, 99.13333,      0.40499, 91.44276,50.00000,34.00000,1.690239e-08,0.91646,3
182.644,103.933,      0.43213, 91.57732,50.00000,34.00000,1.687107e-08,0.91576,3
187.46,108.733,      0.45784, 91.66026,50.00000,34.00000,1.689813e-08,0.91508,3
192.268,113.533,      0.48490, 91.76544,50.00000,34.00000,1.686567e-08,0.91436,3
197.064,118.333,      0.51183, 91.83866,50.00000,34.00000,1.684045e-08,0.91365,3
201.864,123.133,      0.53864, 91.90475,50.00000,34.00000,1.688203e-08,0.91293,3
206.658,127.933,      0.56723, 91.98294,50.00000,35.00000,1.682797e-08,0.91217,3
211.455,132.733,      0.59248, 92.01944,50.00000,35.00000,1.684254e-08,0.91143,3
216.268,137.533,      0.61933, 92.07084,50.00000,35.00000,1.683057e-08,0.91063,3
221.061,142.333,      0.64531, 92.12700,50.00000,35.00000,1.684510e-08,0.90985,3
225.847,147.133,      0.67349, 92.18575,50.00000,35.00000,1.683565e-08,0.90901,3
230.655,151.933,      0.69907, 92.18575,50.00000,35.00000,1.680591e-08,0.90820,3
235.457,156.733,      0.72455, 92.21490,50.00000,35.00000,1.679030e-08,0.90733,3
240.239,161.533,      0.74971, 92.25162,50.00000,35.00000,1.682402e-08,0.90648,3
245.05,166.333,      0.77420, 92.26134,50.00000,35.00000,1.682628e-08,0.90558,3
249.841,171.133,      0.79896, 92.26134,50.00000,35.00000,1.681919e-08,0.90468,3
254.66,175.933,      0.82225, 92.21749,50.00000,35.00000,1.682131e-08,0.90374,3
259.447,180.733,      0.84679, 92.21015,50.00000,35.00000,1.682500e-08,0.90282,3
264.235,185.533,      0.86781, 92.17343,50.00000,35.00000,1.678191e-08,0.90189,3
269.052,190.333,      0.89255, 92.10994,50.00000,35.00000,1.681340e-08,0.90089,3
273.845,195.133,      0.91372, 92.08056,50.00000,35.00000,1.679598e-08,0.89991,3
278.638,199.933,      0.93536, 91.96825,50.00000,35.00000,1.676560e-08,0.89889,3
283.429,204.733,      0.95871, 91.90950,50.00000,35.00000,1.678744e-08,0.89789,3
288.239,209.533,      0.98011, 91.84363,50.00000,35.00000,1.680000e-08,0.89687,3
293.036,214.333,      0.99761, 91.74838,50.00000,35.00000,1.679910e-08,0.89579,3
297.836,219.133,      1.02057, 91.67257,50.00000,35.00000,1.679030e-08,0.89474,3
302.644,223.933,      1.03501, 91.60410,50.00000,35.00000,1.683514e-08,0.89364,3
307.424,228.733,      1.04961, 91.54557,50.00000,35.00000,1.678407e-08,0.89256,3
312.238,233.533,      1.06827, 91.46976,50.00000,35.00000,1.678612e-08,0.89147,3
317.035,238.333,      1.07818, 91.39633,50.00000,35.00000,1.679473e-08,0.89032,3
321.841,243.133,      1.09189, 91.32549,50.00000,35.00000,1.679703e-08,0.88919,3
326.644,247.933,      1.10340, 91.24255,50.00000,35.00000,1.676699e-08,0.88800,3
331.432,252.733,      1.11438, 91.16177,50.00000,34.00000,1.681533e-08,0.88686,3
336.236,257.533,      1.12400, 91.09590,50.00000,34.00000,1.677975e-08,0.88569,3
341.037,262.333,      1.13463, 90.96890,50.00000,34.00000,1.679978e-08,0.88450,3
345.835,267.133,      1.14206, 90.78553,50.00000,34.00000,1.678287e-08,0.88327,3
350.626,271.933,      1.15091, 90.57063,50.00000,34.00000,1.675014e-08,0.88206,3
355.415,276.733,      1.15739, 90.24557,50.00000,34.00000,1.676087e-08,0.88078,3
360.229,281.533,      1.23419, 89.76177,50.00000,34.00000,1.679950e-08,0.87954,3
365.027,286.333,      1.27240, 88.92851,50.00000,34.00000,1.676799e-08,0.87830,3
369.829,291.133,      1.32754, 87.67257,50.00000,34.00000,1.679297e-08,0.87698,3
374.626,295.933,      1.36909, 85.89114,50.00000,34.00000,1.674942e-08,0.87570,3
379.402,300.733,      1.52476, 83.19611,50.00000,34.00000,1.673419e-08,0.87442,3
384.212,305.533,      1.63448, 78.77084,50.00000,34.00000,1.673895e-08,0.87306,3
389.014,310.333,      1.71718, 71.58942,50.00000,34.00000,1.675493e-08,0.87175,3
393.82,315.133,      1.77095, 61.51728,50.00000,34.00000,1.674669e-08,0.87043,3
398.618,319.933,      1.76194, 49.63218,50.00000,34.00000,1.676650e-08,0.86904,3
400.289,321.218,      2.08555, 46.50216,50.00000,34.00000,1.673544e-08,0.86870,4
403.725,321.578,      4.03373, 46.05248,50.00000,34.00000,1.669896e-08,0.86861,4
410.124,321.938,      6.38536, 45.45875,50.00000,34.00000,1.671382e-08,0.86846,4
417.444,322.298,      7.65586, 44.16847,50.00000,34.00000,1.674335e-08,0.86837,4
424.172,322.658,      7.82399, 42.05248,50.00000,34.00000,1.675415e-08,0.86828,4
430.21,323.018,      7.73833, 39.22289,50.00000,34.00000,1.674365e-08,0.86817,4
436.269,323.378,      8.02462, 35.84600,50.00000,34.00000,1.670927e-08,0.86808,4
442.899,323.738,      8.68756, 31.93888,50.00000,34.00000,1.672852e-08,0.86798,4
450.103,324.098,      9.34857, 27.58942,50.00000,34.00000,1.674113e-08,0.86788,4
457.547,324.458,      9.65179, 23.09827,50.00000,34.00000,1.674311e-08,0.86779,4
465.01,324.818,      9.51947, 18.99568,50.00000,34.00000,1.675360e-08,0.86763,4
472.426,325.178,      9.16101, 15.84600,50.00000,34.00000,1.673576e-08,0.86754,4
479.882,325.538,      8.86999, 13.56609,50.00000,34.00000,1.676388e-08,0.86745,4
487.419,325.898,      8.74569, 11.95594,50.00000,34.00000,1.675661e-08,0.86734,4
494.994,326.258,      8.64568, 10.93218,50.00000,34.00000,1.674548e-08,0.86725,4
502.567,326.618,      8.53563, 10.47754,50.00000,34.00000,1.674605e-08,0.86716,4
510.137,326.978,      8.45708, 10.38963,50.00000,34.00000,1.675960e-08,0.86706,4
517.67,327.338,      8.42898, 10.44816,50.00000,34.00000,1.675927e-08,0.86690,4
525.176,327.698,      8.42936, 10.49957,50.00000,34.00000,1.675864e-08,0.86681,4
532.674,328.058,      8.43376, 10.59482,50.00000,34.00000,1.674131e-08,0.86671,4
540.167,328.418,      8.43060, 10.65356,50.00000,34.00000,1.674250e-08,0.86662,4
547.635,328.778,      8.41487, 10.74147,50.00000,34.00000,1.672340e-08,0.86652,4
555.101,329.138,      8.39200, 10.80022,50.00000,34.00000,1.673541e-08,0.86642,4
562.524,329.498,      8.37404, 10.89050,50.00000,34.00000,1.673095e-08,0.86632,4
569.937,329.858,      8.35262, 10.94924,50.00000,34.00000,1.670731e-08,0.86623,4
577.333,330.218,      8.34104, 11.03952,50.00000,34.00000,1.673115e-08,0.86609,4
584.722,330.578,      8.33428, 11.09827,50.00000,34.00000,1.673562e-08,0.86598,4
592.101,330.938,      8.33945, 11.15680,50.00000,34.00000,1.676777e-08,0.86588,4
599.454,331.298,      8.35489, 11.24492,50.00000,34.00000,1.673701e-08,0.86579,4
606.816,331.658,      8.38861, 11.30346,50.00000,34.00000,1.673664e-08,0.86569,4
614.166,332.018,      8.43561, 11.36220,50.00000,34.00000,1.674345e-08,0.86559,4
621.486,332.378,      8.48759, 11.39136,50.00000,34.00000,1.672647e-08,0.86550,4
628.818,332.738,      8.55644, 11.43045,50.00000,34.00000,1.676276e-08,0.86535,4
636.134,333.098,      8.64008, 11.51123,50.00000,34.00000,1.676850e-08,0.86524,4
643.43,333.458,      8.74492, 11.51123,50.00000,34.00000,1.675697e-08,0.86514,4
650.717,333.818,      8.87090, 11.51857,50.00000,34.00000,1.673045e-08,0.86505,4
658.007,334.178,      9.01370, 11.48186,50.00000,34.00000,1.675673e-08,0.86496,4
665.294,334.538,      9.16546, 11.36458,50.00000,34.00000,1.670953e-08,0.86486,4
672.572,334.898,      9.30882, 11.26933,50.00000,34.00000,1.673010e-08,0.86476,4
679.849,335.258,      9.43504, 11.09827,50.00000,34.00000,1.674743e-08,0.86465,4
687.126,335.618,      9.55450, 10.89784,50.00000,34.00000,1.673434e-08,0.86451,4
694.399,335.978,      9.66905, 10.67559,50.00000,34.00000,1.674672e-08,0.86441,4
701.679,336.338,      9.75329, 10.45810,50.00000,34.00000,1.674795e-08,0.86431,4
708.959,336.698,      9.80011, 10.21123,50.00000,34.00000,1.675545e-08,0.86421,4
716.23,337.058,      9.82212,  9.99136,50.00000,34.00000,1.677488e-08,0.86411,4
723.496,337.418,      9.81927,  9.79330,50.00000,34.00000,1.674834e-08,0.86402,4
730.77,337.778,      9.77629,  9.66631,50.00000,34.00000,1.672822e-08,0.86392,4
738.038,338.138,      9.68324,  9.60043,50.00000,34.00000,1.667506e-08,0.86376,4
745.302,338.498,      9.64964,  9.62959,50.00000,34.00000,1.673719e-08,0.86366,4
752.557,338.858,      9.66784,  9.72009,50.00000,34.00000,1.675345e-08,0.86357,4
759.81,339.218,      9.68503,  9.77883,50.00000,34.00000,1.669884e-08,0.86346,4
767.067,339.578,      9.68332,  9.86674,50.00000,34.00000,1.673057e-08,0.86337,4
774.326,339.938,      9.66060,  9.87408,50.00000,34.00000,1.673490e-08,0.86328,4
781.559,340.298,      9.65928,  9.96199,50.00000,34.00000,1.673427e-08,0.86317,4
788.815,340.658,      9.64471, 10.02073,50.00000,34.00000,            ,0.44937,4
794.147,340.923,      9.63527, 10.04989,50.00000,34.00000,            ,0.44723,4