File: data/TGA/commercial_samples/ExpDat_2025_09_04_SL_PS_Container-SCF3_Isothermal.csv
#EXPORTTYPE:                 ,DATA ALL
#FILE:                       ,2025_09_04_SL_PS_Container-SCF3_Isothermal_P5EER5_V1_2.ngb-ss5
#FORMAT:                     ,NETZSCH5
#FTYPE:                      ,ASCII
#IDENTITY:                   ,250825-P5EER5-V1+2
#DECIMAL:                    ,POINT
#SEPARATOR:                  ,COMMA
#MTYPE:                      ,DSC
#INSTRUMENT:                 ,NETZSCH STA 449F5
#PROJECT:                    ,PS-SCF3
#DATE/TIME:                  ,9/4/2025 10:06:24 AM (UTC-4)
#CORR. FILE:                 ,
#TEMPCAL:                    ,05-05-2025 14:38
#SENSITIVITY:                ,28-06-2023 13:53
#LABORATORY:                 ,Tran
#OPERATOR:                   ,Stanley
#REMARK:                     ,2025_03_29_SL_005d_M1_isothermal
#SAMPLE:                     ,250825-P5EER5-V1+2
#SAMPLE MASS /mg:            ,4.53
#MATERIAL:                   ,Polystyrene
#REFERENCE:                  ,
#REFERENCE MASS /mg:         ,0
#TYPE OF CRUCIBLE:           ,Al2O3 85 ‘l, open
#SAMPLE CRUCIBLE MASS /mg:   ,0
#REFERENCE CRUCIBLE MASS /mg:,0
#DSC RANGE /‘V:              ,5000
#TG RANGE /mg:               ,35000
#TAU-R:                      ,---
#CORR. CODE:                 ,000
#EXO:                        ,-1
#RANGE:                      ,30›C....800›C/0.0....20.0K/min
#SEGMENT:                    ,S1-5/5
#SEG. 1:                     ,30›C/10.0(K/min)/100›C
#SEG. 2:                     ,100›C/00:10/100›C
#SEG. 3:                     ,100›C/5.0(K/min)/300›C
#SEG. 4:                     ,300›C/20:00/300›C
#SEG. 5:                     ,300›C/20.0(K/min)/800›C

##Temp./›C,Time/min,DSC/(mW/mg),Mass/%,Gas Flow(purge2)/(ml/min),Gas Flow(protective)/(ml/min),TIC(scan:1)/A,Sensit./(uV/mW),Segment
 26.67700,   0.00000,      1.55371,    100,50.00000,50.00000,            ,0.92290,1
 73.12500,   6.40000,      2.91889,     90.76181,50.00000,50.00000,8.296892e-09,0.92466,1
101.895,   9.89917,      1.63050,     88.97616,50.00000,50.00000,8.275453e-09,0.92520,2
108.907,  13.09917,      0.30325,     86.82340,50.00000,50.00000,8.274214e-09,0.92560,2
107.44,  16.29917,     -0.27672,     85.13510,50.00000,50.00000,8.276103e-09,0.92595,2
117.21,  21.99917,      1.44009,     87.03819,50.00000,50.00000,8.294754e-09,0.92618,3
153.142,  28.39917,      2.14174,     88.21457,50.00000,50.00000,8.278215e-09,0.92516,3
187.544,  34.79917,      1.94367,     88.33929,50.00000,50.00000,8.268954e-09,0.92373,3
219.635,  41.19917,      1.89158,     88.61656,50.00000,50.00000,8.293241e-09,0.92245,3
251.453,  47.59917,      1.83071,     88.88631,50.00000,50.00000,8.273755e-09,0.92141,3
283.358,  53.99917,      1.68154,     88.99868,50.00000,50.00000,8.241745e-09,0.92053,3
301.76,  65.49917,     -0.92746,     88.29691,50.00000,31.00000,8.217407e-09,0.91926,4
300.027,  81.49917,     -0.79248,     86.50132,50.00000,31.00000,8.187662e-09,0.91860,4
300.012,  97.49917,     -0.79888,     85.40243,50.00000,31.00000,8.179312e-09,0.91874,4
300.02, 113.499,     -0.80146,     84.54327,50.00000,31.00000,8.163212e-09,0.91924,4
300.025, 129.499,     -0.80168,     83.86887,50.00000,31.00000,8.154123e-09,0.91758,4
300, 145.499,     -0.80486,     83.17969,50.00000,31.00000,8.174961e-09,0.91088,4
300.017, 161.499,     -0.80188,     82.76269,50.00000,30.00000,8.196136e-09,0.90052,4
300.025, 177.499,     -0.80403,     82.24812,50.00000,30.00000,8.204825e-09,0.88867,4
300.031, 193.499,     -0.80168,     81.72627,50.00000,29.00000,8.163442e-09,0.87594,4
300.027, 209.499,     -0.80211,     81.05430,50.00000,31.00000,8.161929e-09,0.86211,4
300.013, 225.499,     -0.80231,     80.55497,50.00000,31.00000,8.151233e-09,0.84753,4
300.01, 241.499,     -0.80338,     80.04790,50.00000,30.00000,8.144427e-09,0.83184,4
300.011, 257.499,     -0.80124,     79.47859,50.00000,30.00000,8.148053e-09,0.81533,4
300.021, 273.499,     -0.80018,     78.98146,50.00000,30.00000,8.133592e-09,0.79799,4
300.016, 289.499,     -0.80039,     78.45453,50.00000,30.00000,8.129951e-09,0.78417,4
300.026, 305.499,     -0.80125,     77.92009,50.00000,30.00000,8.123630e-09,0.78674,4
300.019, 321.499,     -0.79654,     77.37064,50.00000,30.00000,8.125094e-09,0.78716,4
300.018, 337.499,     -0.79975,     76.89360,50.00000,31.00000,8.118575e-09,0.78720,4
300.017, 353.499,     -0.80103,     76.38411,50.00000,31.00000,8.120664e-09,0.78719,4
300.007, 369.499,     -0.80294,     75.83223,50.00000,31.00000,8.130788e-09,0.78718,4
300.023, 385.499,     -0.79890,     75.33024,50.00000,31.00000,8.149459e-09,0.78720,4
300.02, 401.499,     -0.80296,     74.84834,50.00000,31.00000,8.124878e-09,0.78719,4
300.014, 417.499,     -0.80424,     74.31876,50.00000,31.00000,8.122472e-09,0.78719,4
300.017, 433.499,     -0.80081,     73.79183,50.00000,32.00000,8.129662e-09,0.78720,4
300.012, 449.499,     -0.80616,     73.30486,50.00000,32.00000,8.132618e-09,0.78719,4
300.022, 465.499,     -0.80296,     72.78786,50.00000,32.00000,8.132728e-09,0.78719,4
300.023, 481.499,     -0.80253,     72.21589,50.00000,32.00000,8.121522e-09,0.78720,4
300.028, 497.499,     -0.80489,     71.70397,50.00000,33.00000,8.099041e-09,0.78719,4
300.018, 513.499,     -0.80681,     71.17704,50.00000,33.00000,8.077130e-09,0.78719,4
300.011, 529.499,     -0.80766,     70.71501,50.00000,33.00000,8.059562e-09,0.78720,4
300.018, 545.499,     -0.81044,     70.24040,50.00000,33.00000,8.073154e-09,0.78720,4
300.016, 561.499,     -0.80809,     69.70110,50.00000,33.00000,8.050485e-09,0.78719,4
300.016, 577.499,     -0.81365,     69.19161,50.00000,33.00000,8.031506e-09,0.78719,4
300.006, 593.499,     -0.81578,     68.72208,50.00000,33.00000,8.019929e-09,0.78718,4
300.009, 609.499,     -0.81899,     68.20751,50.00000,33.00000,8.015729e-09,0.78719,4
300.022, 625.499,     -0.81580,     67.70817,50.00000,33.00000,7.991457e-09,0.78719,4
300.023, 641.499,     -0.82050,     67.19360,50.00000,33.00000,7.982841e-09,0.78719,4
300.018, 657.499,     -0.81836,     66.68168,50.00000,33.00000,7.970338e-09,0.78718,4
300.021, 673.499,     -0.82136,     66.15717,50.00000,33.00000,7.945777e-09,0.78719,4
300.037, 689.499,     -0.82309,     65.64018,50.00000,33.00000,7.961869e-09,0.78719,4
300.018, 705.499,     -0.82414,     65.10066,50.00000,34.00000,7.936327e-09,0.78720,4
300.009, 721.499,     -0.82755,     64.58366,50.00000,34.00000,7.927929e-09,0.78720,4
300.011, 737.499,     -0.82798,     64.06181,50.00000,34.00000,7.954832e-09,0.78719,4
300.024, 753.499,     -0.82864,     63.51479,50.00000,34.00000,7.968613e-09,0.78719,4
300.026, 769.499,     -0.83013,     62.99294,50.00000,34.00000,7.947329e-09,0.78719,4
300.003, 785.499,     -0.83354,     62.48344,50.00000,34.00000,7.937616e-09,0.78720,4
300.029, 801.499,     -0.83142,     61.93642,50.00000,34.00000,7.913896e-09,0.78719,4
300.008, 817.499,     -0.83397,     61.41457,50.00000,34.00000,7.912036e-09,0.78719,4
300.026, 833.499,     -0.83784,     60.87506,50.00000,34.00000,7.919269e-09,0.78719,4
300.025, 849.499,     -0.83420,     60.30574,50.00000,34.00000,7.919192e-09,0.78719,4
300.018, 865.499,     -0.83762,     59.78609,50.00000,34.00000,7.913642e-09,0.78719,4
300.015, 881.499,     -0.84061,     59.23179,50.00000,34.00000,7.894051e-09,0.78719,4
300.013, 897.499,     -0.84018,     58.68477,50.00000,34.00000,7.875295e-09,0.78720,4
300.015, 913.499,     -0.83975,     58.13289,50.00000,34.00000,7.884455e-09,0.78719,4
300.009, 929.499,     -0.84274,     57.56358,50.00000,34.00000,7.894377e-09,0.78718,4
300.007, 945.499,     -0.84295,     57.01148,50.00000,34.00000,7.905768e-09,0.78721,4
300.007, 961.499,     -0.84359,     56.50199,50.00000,34.00000,7.918569e-09,0.78720,4
300.01, 977.499,     -0.84103,     55.89272,50.00000,34.00000,7.908611e-09,0.78719,4
300.008, 993.499,     -0.84360,     55.35320,50.00000,34.00000,7.897846e-09,0.78719,4
299.996,1009.5,     -0.84637,     54.80640,50.00000,34.00000,7.913110e-09,0.78718,4
300.017,1025.5,     -0.84746,     54.31921,50.00000,34.00000,7.902664e-09,0.78717,4
300.014,1041.5,     -0.84788,     53.73245,50.00000,34.00000,7.905724e-09,0.78719,4
300.012,1057.5,     -0.85066,     53.19051,50.00000,33.00000,7.901494e-09,0.78718,4
300.026,1073.5,     -0.85025,     52.60596,50.00000,33.00000,7.907498e-09,0.78718,4
300.026,1089.5,     -0.84811,     52.05673,50.00000,33.00000,7.908415e-09,0.78720,4
300.01,1105.5,     -0.85044,     51.53223,50.00000,33.00000,7.909148e-09,0.78717,4
300.009,1121.5,     -0.84895,     50.96777,50.00000,33.00000,7.900530e-09,0.78719,4
300.014,1137.5,     -0.85130,     50.38344,50.00000,33.00000,7.935395e-09,0.78719,4
300.019,1153.5,     -0.84767,     49.82141,50.00000,33.00000,7.940208e-09,0.78719,4
299.997,1169.5,     -0.85278,     49.27439,50.00000,33.00000,7.944936e-09,0.78719,4
300.021,1185.5,     -0.84939,     48.70508,50.00000,33.00000,7.972334e-09,0.78719,4
300.022,1201.5,     -0.85046,     48.17307,50.00000,33.00000,7.958060e-09,0.78719,4
300.014,1217.5,     -0.85323,     47.66358,50.00000,33.00000,7.962965e-09,0.78718,4
300.019,1233.5,     -0.85388,     47.09426,50.00000,33.00000,7.975689e-09,0.78719,4
300.009,1249.5,     -0.85322,     46.53731,50.00000,33.00000,7.960041e-09,0.78719,4
300.651,1257.42,     -0.46826,     46.10022,50.00000,50.00000,7.953568e-09,0.78719,5
310.364,1258.22,      4.10361,     46.78212,50.00000,50.00000,7.970447e-09,0.78719,5
324.642,1259.02,      6.50100,     47.04680,50.00000,50.00000,7.970900e-09,0.78719,5
338.31,1259.82,      6.75789,     47.29161,50.00000,50.00000,7.969784e-09,0.78719,5
354.453,1260.62,      8.07680,     47.62627,50.00000,50.00000,7.955459e-09,0.78719,5
371.813,1261.42,      8.78892,     47.33400,50.00000,50.00000,7.978412e-09,0.78719,5
389.158,1262.22,      9.05828,     45.64812,50.00000,50.00000,7.973050e-09,0.78719,5
406.748,1263.02,      9.60322,     40.68322,50.00000,50.00000,7.964173e-09,0.78719,5
424.198,1263.82,     10.44157,     28.87792,50.00000,50.00000,7.967084e-09,0.78719,5
441.419,1264.62,     11.02056,      9.25806,50.00000,50.00000,7.963150e-09,0.78718,5
458.455,1265.42,      9.73370,     -4.71258,50.00000,50.00000,7.963701e-09,0.78718,5
475.345,1266.22,      8.27238,     -7.84945,50.00000,50.00000,7.976765e-09,0.78719,5
492.015,1267.02,      7.59591,     -7.97682,50.00000,50.00000,7.978827e-09,0.78719,5
508.519,1267.82,      7.21021,     -7.85695,50.00000,50.00000,7.973885e-09,0.78719,5
524.893,1268.62,      6.87680,     -7.66954,50.00000,50.00000,7.967325e-09,0.78719,5
541.183,1269.42,      6.56248,     -7.48720,50.00000,50.00000,7.981607e-09,0.78719,5
557.366,1270.22,      6.22784,     -7.33488,50.00000,50.00000,7.984866e-09,0.78721,5
573.584,1271.02,      5.97381,     -7.13753,50.00000,50.00000,7.981000e-09,0.78719,5
589.81,1271.82,      5.66579,     -7.04525,50.00000,50.00000,7.983781e-09,0.78719,5
605.981,1272.62,      5.33349,     -6.88035,50.00000,50.00000,7.986671e-09,0.78719,5
622.117,1273.42,      5.01087,     -6.74305,50.00000,50.00000,7.973724e-09,0.78719,5
638.229,1274.22,      4.66345,     -6.60066,50.00000,50.00000,7.962546e-09,0.78719,5
654.353,1275.02,      4.28431,     -6.44327,50.00000,50.00000,7.979571e-09,0.78719,5
670.455,1275.82,      3.85503,     -6.34592,50.00000,50.00000,7.967420e-09,0.78720,5
686.559,1276.62,      3.36355,     -6.22605,50.00000,50.00000,7.989997e-09,0.78719,5
702.658,1277.42,      2.78623,     -6.10375,50.00000,50.00000,7.991501e-09,0.78719,5
718.793,1278.22,      2.13273,     -5.98124,50.00000,50.00000,7.995071e-09,0.78719,5
734.944,1279.02,      1.36029,     -5.86137,50.00000,50.00000,7.993425e-09,0.78720,5
751.071,1279.82,      0.46605,     -5.74150,50.00000,50.00000,7.997955e-09,0.78719,5
767.173,1280.62,     -0.46431,     -5.64415,50.00000,50.00000,7.983991e-09,0.78721,5
783.31,1281.42,     -1.40713,     -5.51678,50.00000,50.00000,7.970304e-09,0.78720,5
794.898,1282,     -2.05940,     -5.42693,50.00000,50.00000,            ,0.44693,5