File: data/TGA/commercial_samples/ExpDat_2025_08_24_SL_PS_Red_Solo_Cup_SCF3_Isothermal.csv
#EXPORTTYPE:                 ,DATA ALL
#FILE:                       ,2025_08_24_SL_PS_Red_Solo_Cup_SCF3_Isothermal.ngb-ss5
#FORMAT:                     ,NETZSCH5
#FTYPE:                      ,ASCII
#IDENTITY:                   ,250821-P5EER3-V1+2
#DECIMAL:                    ,POINT
#SEPARATOR:                  ,COMMA
#MTYPE:                      ,DSC
#INSTRUMENT:                 ,NETZSCH STA 449F5
#PROJECT:                    ,Polystyrene
#DATE/TIME:                  ,8/24/2025 11:16:25 AM (UTC-4)
#CORR. FILE:                 ,
#TEMPCAL:                    ,05-05-2025 14:38
#SENSITIVITY:                ,28-06-2023 13:53
#LABORATORY:                 ,Tran/AAG
#OPERATOR:                   ,Stanley
#REMARK:                     ,2025_03_29_SL_005d_M1_isothermal
#SAMPLE:                     ,250821-P5EER3-V1+2
#SAMPLE MASS /mg:            ,4.10
#MATERIAL:                   ,Polystyrene
#REFERENCE:                  ,
#REFERENCE MASS /mg:         ,0
#TYPE OF CRUCIBLE:           ,Al2O3 85 ‘l, open
#SAMPLE CRUCIBLE MASS /mg:   ,0
#REFERENCE CRUCIBLE MASS /mg:,0
#DSC RANGE /‘V:              ,5000
#TG RANGE /mg:               ,35000
#TAU-R:                      ,---
#CORR. CODE:                 ,000
#EXO:                        ,-1
#RANGE:                      ,30›C....800›C/0.0....20.0K/min
#SEGMENT:                    ,S1-5/5
#SEG. 1:                     ,30›C/10.0(K/min)/100›C
#SEG. 2:                     ,100›C/00:10/100›C
#SEG. 3:                     ,100›C/5.0(K/min)/300›C
#SEG. 4:                     ,300›C/20:00/300›C
#SEG. 5:                     ,300›C/20.0(K/min)/800›C

##Temp./›C,Time/min,DSC/(mW/mg),Mass/%,Gas Flow(purge2)/(ml/min),Gas Flow(protective)/(ml/min),TIC(scan:1)/A,Sensit./(uV/mW),Segment
 28.26500,   0.00000,      0.94410,    100,50.00000,54.00000,            ,0.92322,1
 74.88500,   6.40000,      3.63722,     95.80024,50.00000,52.00000,9.955205e-09,0.92415,1
104.007,   9.88000,      1.79591,     93.42732,50.00000,52.00000,9.969114e-09,0.92479,2
110.068,  13.08000,      0.17651,     90.83073,50.00000,52.00000,9.957756e-09,0.92537,2
107.772,  16.28000,     -0.43982,     88.99561,50.00000,52.00000,9.974467e-09,0.92586,2
117.109,  22.00000,      1.61890,     91.17829,50.00000,52.00000,9.988708e-09,0.92618,3
153.163,  28.40000,      2.49845,     92.46976,50.00000,52.00000,9.980865e-09,0.92503,3
187.696,  34.80000,      2.32860,     92.61610,50.00000,52.00000,9.988983e-09,0.92343,3
219.785,  41.20000,      2.24968,     92.55537,50.00000,52.00000,9.958040e-09,0.92203,3
251.622,  47.60000,      2.16755,     91.81585,50.00000,52.00000,9.955115e-09,0.92092,3
283.504,  54.00000,      2.01938,     90.10780,50.00000,52.00000,9.946590e-09,0.92001,3
301.734,  65.56000,     -1.10879,     84.82366,50.00000,52.00000,9.943927e-09,0.91880,4
300.031,  81.56000,     -0.95668,     81.62268,50.00000,52.00000,9.938857e-09,0.91826,4
300.021,  97.56000,     -0.96022,     79.78780,50.00000,52.00000,9.937424e-09,0.91853,4
300.017, 113.56,     -0.96281,     78.62049,50.00000,52.00000,9.921847e-09,0.91915,4
300.016, 129.56,     -0.96257,     77.75415,50.00000,52.00000,9.921799e-09,0.91783,4
300.017, 145.56,     -0.96541,     77.11951,50.00000,52.00000,9.927631e-09,0.91119,4
300.015, 161.56,     -0.96446,     76.58951,50.00000,52.00000,9.909725e-09,0.90086,4
300.032, 177.56,     -0.96259,     76.12878,50.00000,52.00000,9.902135e-09,0.88898,4
300.009, 193.56,     -0.96351,     75.65415,50.00000,52.00000,9.906158e-09,0.87640,4
300.029, 209.56,     -0.96212,     75.29537,50.00000,52.00000,9.908785e-09,0.86273,4
300.008, 225.56,     -0.96658,     74.93951,50.00000,52.00000,9.919717e-09,0.84821,4
300.012, 241.56,     -0.96682,     74.57805,50.00000,53.00000,9.907512e-09,0.83254,4
300.012, 257.56,     -0.96611,     74.30756,50.00000,53.00000,9.878396e-09,0.81625,4
300.008, 273.56,     -0.96729,     73.98195,50.00000,53.00000,9.886382e-09,0.79933,4
300.006, 289.56,     -0.96469,     73.69780,50.00000,53.00000,9.897952e-09,0.78400,4
300.007, 305.56,     -0.96540,     73.40244,50.00000,53.00000,9.899144e-09,0.78665,4
300.02, 321.56,     -0.96802,     73.13756,50.00000,53.00000,9.927617e-09,0.78715,4
300.016, 337.56,     -0.96990,     72.87268,50.00000,53.00000,9.892277e-09,0.78720,4
300.013, 353.56,     -0.96777,     72.58024,50.00000,53.00000,9.910718e-09,0.78720,4
300.02, 369.56,     -0.96872,     72.28220,50.00000,53.00000,9.898800e-09,0.78719,4
300.007, 385.56,     -0.96942,     72.04220,50.00000,53.00000,9.892575e-09,0.78719,4
300.018, 401.56,     -0.97345,     71.75244,50.00000,53.00000,9.877615e-09,0.78720,4
300.017, 417.56,     -0.97108,     71.49854,50.00000,53.00000,9.867117e-09,0.78720,4
300.02, 433.56,     -0.97345,     71.23927,50.00000,53.00000,9.831594e-09,0.78719,4
300.01, 449.56,     -0.97391,     70.97707,50.00000,53.00000,9.792285e-09,0.78719,4
300.011, 465.56,     -0.97084,     70.72878,50.00000,53.00000,9.805591e-09,0.78718,4
300.008, 481.56,     -0.97415,     70.43341,50.00000,53.00000,9.788843e-09,0.78720,4
300.014, 497.56,     -0.97155,     70.20707,50.00000,53.00000,9.743657e-09,0.78719,4
300.022, 513.56,     -0.97535,     69.91195,50.00000,53.00000,9.759447e-09,0.78720,4
300.01, 529.56,     -0.97651,     69.61659,50.00000,54.00000,9.749821e-09,0.78719,4
300.015, 545.56,     -0.97510,     69.39317,50.00000,54.00000,9.721540e-09,0.78720,4
300.01, 561.56,     -0.97746,     69.13098,50.00000,54.00000,9.693771e-09,0.78718,4
300.017, 577.56,     -0.97747,     68.84415,50.00000,54.00000,9.702057e-09,0.78719,4
300.023, 593.56,     -0.97889,     68.58195,50.00000,54.00000,9.687114e-09,0.78718,4
300.018, 609.56,     -0.97629,     68.30049,50.00000,54.00000,9.678585e-09,0.78720,4
300.023, 625.56,     -0.97889,     68.01341,50.00000,54.00000,9.687611e-09,0.78719,4
300.016, 641.56,     -0.97983,     67.74585,50.00000,54.00000,9.678391e-09,0.78720,4
300.017, 657.56,     -0.98007,     67.47268,50.00000,54.00000,9.700287e-09,0.78719,4
299.998, 673.56,     -0.98075,     67.20780,50.00000,54.00000,9.682966e-09,0.78719,4
300.011, 689.56,     -0.97746,     66.96488,50.00000,54.00000,9.732394e-09,0.78720,4
300.031, 705.56,     -0.97748,     66.65049,50.00000,54.00000,9.729503e-09,0.78719,4
300.031, 721.56,     -0.98056,     66.37439,50.00000,53.00000,9.737404e-09,0.78718,4
300.019, 737.56,     -0.98196,     66.08195,50.00000,53.00000,9.755430e-09,0.78719,4
300.012, 753.56,     -0.98361,     65.78951,50.00000,53.00000,9.743758e-09,0.78720,4
300.023, 769.56,     -0.97937,     65.43073,50.00000,54.00000,9.758616e-09,0.78720,4
300.007, 785.56,     -0.98171,     65.15488,50.00000,54.00000,9.780710e-09,0.78720,4
300.025, 801.56,     -0.98551,     64.87341,50.00000,54.00000,9.769128e-09,0.78720,4
300.008, 817.56,     -0.98242,     64.53390,50.00000,54.00000,9.755686e-09,0.78719,4
300.015, 833.56,     -0.98172,     64.20829,50.00000,54.00000,9.779312e-09,0.78719,4
300.018, 849.56,     -0.98503,     63.91024,50.00000,54.00000,9.751213e-09,0.78720,4
300.016, 865.56,     -0.98621,     63.60122,50.00000,54.00000,9.780925e-09,0.78719,4
300.017, 881.56,     -0.98621,     63.30610,50.00000,54.00000,9.766289e-09,0.78719,4
300.015, 897.56,     -0.98692,     63.01073,50.00000,54.00000,9.754144e-09,0.78719,4
300.022, 913.56,     -0.98622,     62.68780,50.00000,54.00000,9.734765e-09,0.78719,4
300.01, 929.56,     -0.98668,     62.39537,50.00000,54.00000,9.752672e-09,0.78719,4
300.012, 945.56,     -0.98479,     62.12220,50.00000,54.00000,9.737387e-09,0.78721,4
300.012, 961.56,     -0.98904,     61.80780,50.00000,54.00000,9.728136e-09,0.78719,4
300.016, 977.56,     -0.98976,     61.50976,50.00000,54.00000,9.718817e-09,0.78718,4
300.017, 993.56,     -0.98787,     61.20341,50.00000,54.00000,9.730597e-09,0.78718,4
300.017,1009.56,     -0.99071,     60.88049,50.00000,54.00000,9.722228e-09,0.78718,4
300.011,1025.56,     -0.99093,     60.56317,50.00000,54.00000,9.716061e-09,0.78719,4
300.018,1041.56,     -0.99354,     60.24854,50.00000,54.00000,9.699303e-09,0.78719,4
300.016,1057.56,     -0.99472,     59.91756,50.00000,54.00000,9.696952e-09,0.78720,4
300.015,1073.56,     -0.99448,     59.61951,50.00000,54.00000,9.689366e-09,0.78719,4
300.024,1089.56,     -0.99591,     59.33537,50.00000,54.00000,9.678905e-09,0.78719,4
300.016,1105.56,     -0.99992,     58.99585,50.00000,54.00000,9.666798e-09,0.78720,4
300.018,1121.56,     -0.99638,     58.73098,50.00000,54.00000,9.669681e-09,0.78720,4
300.017,1137.56,     -0.99685,     58.41366,50.00000,54.00000,9.652164e-09,0.78719,4
300.013,1153.56,     -0.99945,     58.07976,50.00000,54.00000,9.640123e-09,0.78718,4
300.023,1169.56,     -1.00135,     57.76805,50.00000,54.00000,9.635863e-09,0.78719,4
300.02,1185.56,     -1.00135,     57.44512,50.00000,54.00000,9.625772e-09,0.78719,4
300.012,1201.56,     -1.00039,     57.18024,50.00000,54.00000,9.629384e-09,0.78720,4
300.008,1217.56,     -1.00062,     56.87122,50.00000,54.00000,9.623413e-09,0.78719,4
300.011,1233.56,     -1.00181,     56.56756,50.00000,54.00000,9.594256e-09,0.78719,4
300.017,1249.56,     -0.99591,     56.27244,50.00000,54.00000,9.609561e-09,0.78719,4
300.682,1257.39,     -0.41353,     56.40488,50.00000,54.00000,9.601870e-09,0.78719,5
310.35,1258.19,      5.26292,     58.33098,50.00000,54.00000,9.603568e-09,0.78719,5
324.452,1258.99,      8.00856,     58.92146,50.00000,54.00000,9.608270e-09,0.78718,5
338.125,1259.79,      8.43798,     59.19463,50.00000,54.00000,9.596890e-09,0.78718,5
354.271,1260.59,     10.11151,     59.68293,50.00000,54.00000,9.613468e-09,0.78720,5
371.584,1261.39,     10.93871,     59.72439,50.00000,54.00000,9.597326e-09,0.78719,5
388.94,1262.19,     11.20573,     59.04000,50.00000,54.00000,9.594793e-09,0.78720,5
406.543,1262.99,     11.63260,     55.86390,50.00000,54.00000,9.590716e-09,0.78720,5
424.018,1263.79,     12.49540,     46.67537,50.00000,54.00000,9.610188e-09,0.78720,5
441.273,1264.59,     13.68573,     25.77317,50.00000,54.00000,9.598858e-09,0.78719,5
458.305,1265.39,     12.65454,      5.32341,50.00000,54.00000,9.625636e-09,0.78720,5
475.182,1266.19,     10.62853,     -1.64390,50.00000,54.00000,9.596989e-09,0.78718,5
491.88,1266.99,      9.61719,     -3.01805,50.00000,54.00000,9.583348e-09,0.78719,5
508.395,1267.79,      9.02429,     -3.18366,50.00000,54.00000,9.595324e-09,0.78719,5
524.797,1268.59,      8.57355,     -3.19195,50.00000,54.00000,9.581620e-09,0.78719,5
541.096,1269.39,      8.12925,     -3.13390,50.00000,54.00000,9.583928e-09,0.78718,5
557.341,1270.19,      7.71085,     -3.01805,50.00000,54.00000,9.585006e-09,0.78719,5
573.558,1270.99,      7.28761,     -2.85244,50.00000,54.00000,9.602954e-09,0.78719,5
589.755,1271.79,      6.84736,     -2.68415,50.00000,54.00000,9.611431e-09,0.78719,5
605.913,1272.59,      6.39848,     -2.55171,50.00000,54.00000,9.581960e-09,0.78720,5
622.053,1273.39,      5.93297,     -2.35293,50.00000,54.00000,9.578051e-09,0.78720,5
638.188,1274.19,      5.46127,     -2.20415,50.00000,54.00000,9.584724e-09,0.78719,5
654.32,1274.99,      4.95087,     -2.03854,50.00000,54.00000,9.592585e-09,0.78720,5
670.422,1275.79,      4.39900,     -1.90049,50.00000,54.00000,9.583063e-09,0.78719,5
686.532,1276.59,      3.84760,     -1.73488,50.00000,54.00000,9.585968e-09,0.78719,5
702.652,1277.39,      3.24898,     -1.60244,50.00000,54.00000,9.590870e-09,0.78719,5
718.791,1278.19,      2.63686,     -1.43415,50.00000,54.00000,9.591199e-09,0.78719,5
734.914,1278.99,      1.97534,     -1.31829,50.00000,54.00000,9.584058e-09,0.78719,5
751.045,1279.79,      1.27688,     -1.16927,50.00000,54.00000,9.604827e-09,0.78718,5
767.18,1280.59,      0.54673,     -1.00366,50.00000,54.00000,9.586334e-09,0.78718,5
783.316,1281.39,     -0.19449,     -0.87951,50.00000,54.00000,9.589622e-09,0.78719,5
794.791,1281.96,     -0.70649,     -0.78024,50.00000,54.00000,            ,0.44697,5