File: data/TGA/commercial_samples/ExpDat_2025_08_01_SL_PS_Petri_Dish_Isothermal.csv
#EXPORTTYPE:                 ,DATA ALL
#FILE:                       ,2025_08_01_SL_PS_Petri_Dish_Isothermal.ngb-ss5
#FORMAT:                     ,NETZSCH5
#FTYPE:                      ,ASCII
#IDENTITY:                   ,PS-Petri-Dish
#DECIMAL:                    ,POINT
#SEPARATOR:                  ,COMMA
#MTYPE:                      ,DSC
#INSTRUMENT:                 ,NETZSCH STA 449F5
#PROJECT:                    ,
#DATE/TIME:                  ,8/5/2025 1:50:47 PM (UTC-4)
#CORR. FILE:                 ,
#TEMPCAL:                    ,05-05-2025 14:38
#SENSITIVITY:                ,28-06-2023 13:53
#LABORATORY:                 ,Tran/AAG
#OPERATOR:                   ,Stanley
#REMARK:                     ,2025_03_29_SL_005d_M1_isothermal
#SAMPLE:                     ,PS-Petri-Dish
#SAMPLE MASS /mg:            ,4.90
#MATERIAL:                   ,Polystyrene
#REFERENCE:                  ,
#REFERENCE MASS /mg:         ,0
#TYPE OF CRUCIBLE:           ,Al2O3 85 ‘l, open
#SAMPLE CRUCIBLE MASS /mg:   ,0
#REFERENCE CRUCIBLE MASS /mg:,0
#DSC RANGE /‘V:              ,5000
#TG RANGE /mg:               ,35000
#TAU-R:                      ,---
#CORR. CODE:                 ,000
#EXO:                        ,-1
#RANGE:                      ,30›C....800›C/0.0....20.0K/min
#SEGMENT:                    ,S1-5/5
#SEG. 1:                     ,30›C/10.0(K/min)/100›C
#SEG. 2:                     ,100›C/00:10/100›C
#SEG. 3:                     ,100›C/5.0(K/min)/300›C
#SEG. 4:                     ,300›C/20:00/300›C
#SEG. 5:                     ,300›C/20.0(K/min)/800›C

##Temp./›C,Time/min,DSC/(mW/mg),Mass/%,Gas Flow(purge2)/(ml/min),Gas Flow(protective)/(ml/min),TIC(scan:1)/A,Sensit./(uV/mW),Segment
 29.63400,   0.00000,      1.34090,    100,50.00000,50.00000,            ,0.92349,1
 73.40800,   6.32000,      3.28551,     94.57184,50.00000,50.00000,1.362957e-08,0.92461,1
102.765,   9.82000,      1.84797,     93.00184,50.00000,50.00000,1.366121e-08,0.92513,2
109.381,  12.98000,      0.26361,     91.04633,50.00000,50.00000,1.367901e-08,0.92557,2
107.602,  16.14000,     -0.40849,     89.64939,50.00000,50.00000,1.364435e-08,0.92595,2
115.199,  21.60000,      1.54303,     91.46653,50.00000,50.00000,1.363749e-08,0.92619,3
150.402,  27.92000,      2.67446,     92.94878,50.00000,50.00000,1.366438e-08,0.92517,3
184.838,  34.24000,      2.54007,     93.41980,50.00000,50.00000,1.363980e-08,0.92361,3
216.611,  40.56000,      2.50375,     93.83531,50.00000,50.00000,1.363122e-08,0.92228,3
248.026,  46.88000,      2.43691,     94.05245,50.00000,50.00000,1.360718e-08,0.92120,3
279.525,  53.20000,      2.27744,     93.96245,50.00000,50.00000,1.361062e-08,0.92032,3
302.602,  63.30000,     -1.31323,     92.65102,50.00000,38.00000,1.362547e-08,0.91918,4
300.065,  79.10000,     -1.12947,     90.21286,50.00000,37.00000,1.360785e-08,0.91847,4
300.015,  94.90000,     -1.12387,     88.70286,50.00000,37.00000,1.361423e-08,0.91862,4
300.027, 110.7,     -1.12388,     87.67531,50.00000,37.00000,1.360862e-08,0.91915,4
299.992, 126.5,     -1.12206,     86.84408,50.00000,37.00000,1.361544e-08,0.91836,4
300.018, 142.3,     -1.12367,     86.13531,50.00000,37.00000,1.359474e-08,0.91255,4
300.014, 158.1,     -1.11615,     85.48429,50.00000,37.00000,1.355855e-08,0.90274,4
300.022, 173.9,     -1.11695,     84.90020,50.00000,37.00000,1.356200e-08,0.89115,4
300.01, 189.7,     -1.11338,     84.35286,50.00000,37.00000,1.357677e-08,0.87873,4
300.022, 205.5,     -1.11399,     83.79653,50.00000,38.00000,1.358441e-08,0.86540,4
300.026, 221.3,     -1.10826,     83.22612,50.00000,38.00000,1.357925e-08,0.85106,4
300.018, 237.1,     -1.11180,     82.68816,50.00000,38.00000,1.356996e-08,0.83576,4
300.019, 252.9,     -1.10627,     82.17327,50.00000,38.00000,1.357157e-08,0.81960,4
300.012, 268.7,     -1.09894,     81.66551,50.00000,38.00000,1.353964e-08,0.80279,4
300.033, 284.5,     -1.09659,     81.16673,50.00000,38.00000,1.356115e-08,0.78493,4
300.009, 300.3,     -1.09538,     80.66571,50.00000,38.00000,1.352866e-08,0.78630,4
300.008, 316.1,     -1.08944,     80.17612,50.00000,38.00000,1.351109e-08,0.78712,4
300.023, 331.9,     -1.08748,     79.70980,50.00000,38.00000,1.352146e-08,0.78718,4
300.011, 347.7,     -1.08569,     79.21571,50.00000,38.00000,1.350718e-08,0.78720,4
300.001, 363.5,     -1.09003,     78.74939,50.00000,38.00000,1.351432e-08,0.78719,4
300.015, 379.3,     -1.08174,     78.26918,50.00000,38.00000,1.353816e-08,0.78719,4
300.015, 395.1,     -1.07758,     77.78184,50.00000,38.00000,1.348908e-08,0.78720,4
300.016, 410.9,     -1.01666,     77.27388,50.00000,38.00000,1.351282e-08,0.78719,4
300.012, 426.7,     -0.99114,     76.77531,50.00000,38.00000,1.351508e-08,0.78719,4
300.005, 442.5,     -0.98619,     76.29735,50.00000,38.00000,1.347149e-08,0.78719,4
300.019, 458.3,     -0.98304,     75.79633,50.00000,38.00000,1.344990e-08,0.78719,4
300.022, 474.1,     -0.98285,     75.29755,50.00000,38.00000,1.348828e-08,0.78718,4
300.007, 489.9,     -0.97887,     74.80122,50.00000,38.00000,1.347576e-08,0.78719,4
300.021, 505.7,     -0.98027,     74.34163,50.00000,38.00000,1.348660e-08,0.78720,4
300.007, 521.5,     -0.97610,     73.82694,50.00000,38.00000,1.345429e-08,0.78718,4
300.032, 537.3,     -0.96842,     73.29347,50.00000,38.00000,1.345541e-08,0.78719,4
300.017, 553.1,     -0.97117,     72.81327,50.00000,38.00000,1.346665e-08,0.78719,4
300.018, 568.9,     -0.96919,     72.34000,50.00000,38.00000,1.346352e-08,0.78719,4
300.013, 584.7,     -0.97018,     71.83653,50.00000,38.00000,1.343375e-08,0.78719,4
300.01, 600.5,     -0.97077,     71.33796,50.00000,38.00000,1.345896e-08,0.78720,4
300.019, 616.3,     -0.97216,     70.84143,50.00000,38.00000,1.345469e-08,0.78719,4
300.01, 632.1,     -0.97037,     70.36122,50.00000,38.00000,1.342644e-08,0.78720,4
300.015, 647.9,     -0.96978,     69.86245,50.00000,38.00000,1.341769e-08,0.78719,4
300.012, 663.7,     -0.97057,     69.37306,50.00000,38.00000,1.342148e-08,0.78719,4
300.015, 679.5,     -0.97077,     68.88592,50.00000,38.00000,1.341292e-08,0.78719,4
300.004, 695.3,     -0.97234,     68.38020,50.00000,38.00000,1.340656e-08,0.78719,4
300.013, 711.1,     -0.97216,     67.88612,50.00000,38.00000,1.342046e-08,0.78719,4
300.028, 726.9,     -0.97059,     67.33673,50.00000,38.00000,1.336399e-08,0.78720,4
300.017, 742.7,     -0.97097,     66.83571,50.00000,38.00000,1.337168e-08,0.78719,4
300.012, 758.5,     -0.97552,     66.33000,50.00000,38.00000,1.337308e-08,0.78719,4
300.019, 774.3,     -0.97295,     65.79673,50.00000,38.00000,1.337240e-08,0.78719,4
300.03, 790.1,     -0.96921,     65.31878,50.00000,39.00000,1.336322e-08,0.78720,4
300.009, 805.9,     -0.97354,     64.82694,50.00000,38.00000,1.336252e-08,0.78719,4
300.018, 821.7,     -0.97592,     64.32122,50.00000,39.00000,1.332266e-08,0.78719,4
300.016, 837.5,     -0.97612,     63.80878,50.00000,38.00000,1.337284e-08,0.78719,4
300.011, 853.3,     -0.97532,     63.30776,50.00000,39.00000,1.333866e-08,0.78718,4
300.026, 869.1,     -0.97316,     62.78122,50.00000,38.00000,1.333210e-08,0.78720,4
300.014, 884.9,     -0.97532,     62.30796,50.00000,38.00000,1.334191e-08,0.78718,4
300.013, 900.7,     -0.97730,     61.82306,50.00000,38.00000,1.331613e-08,0.78720,4
300.018, 916.5,     -0.97592,     61.33367,50.00000,38.00000,1.331888e-08,0.78720,4
300.025, 932.3,     -0.97652,     60.80959,50.00000,38.00000,1.328217e-08,0.78719,4
300.022, 948.1,     -0.97513,     60.30612,50.00000,38.00000,1.328829e-08,0.78719,4
300.018, 963.9,     -0.97612,     59.80510,50.00000,38.00000,1.329581e-08,0.78718,4
300.038, 979.7,     -0.97713,     59.32265,50.00000,38.00000,1.326225e-08,0.78719,4
300.014, 995.5,     -0.97631,     58.81694,50.00000,39.00000,1.325715e-08,0.78717,4
300.019,1011.3,     -0.98245,     58.29980,50.00000,39.00000,1.324628e-08,0.78719,4
300.02,1027.1,     -0.97770,     57.81959,50.00000,39.00000,1.322421e-08,0.78719,4
300.033,1042.9,     -0.97811,     57.32776,50.00000,39.00000,1.322517e-08,0.78718,4
300.027,1058.7,     -0.97989,     56.85224,50.00000,39.00000,1.320662e-08,0.78719,4
300.028,1074.5,     -0.97949,     56.31878,50.00000,39.00000,1.321100e-08,0.78719,4
300.007,1090.3,     -0.97887,     55.81082,50.00000,39.00000,1.320632e-08,0.78718,4
300.02,1106.1,     -0.98364,     55.34673,50.00000,39.00000,1.319751e-08,0.78718,4
300.016,1121.9,     -0.98027,     54.82490,50.00000,38.00000,1.322726e-08,0.78719,4
300.007,1137.7,     -0.98125,     54.34245,50.00000,38.00000,1.319167e-08,0.78719,4
300.035,1153.5,     -0.97970,     53.87837,50.00000,38.00000,1.320645e-08,0.78719,4
300.018,1169.3,     -0.98660,     53.39816,50.00000,38.00000,1.320342e-08,0.78719,4
300.005,1185.1,     -0.98401,     52.84163,50.00000,38.00000,1.319294e-08,0.78718,4
300.017,1200.9,     -0.98086,     52.37061,50.00000,38.00000,1.321017e-08,0.78720,4
300.029,1216.7,     -0.98167,     51.86735,50.00000,38.00000,1.317810e-08,0.78718,4
300.012,1232.5,     -0.98462,     51.39408,50.00000,38.00000,1.315207e-08,0.78720,4
300.015,1248.3,     -0.98422,     50.88612,50.00000,38.00000,1.315378e-08,0.78719,4
300.463,1257.36,     -0.50049,     50.54673,50.00000,50.00000,1.319173e-08,0.78720,5
309.393,1258.14,      5.44831,     51.50714,50.00000,50.00000,1.316945e-08,0.78719,5
323.482,1258.93,      8.69326,     51.89735,50.00000,50.00000,1.317581e-08,0.78720,5
336.945,1259.72,      9.11478,     52.06367,50.00000,50.00000,1.317814e-08,0.78719,5
352.661,1260.52,     10.85392,     52.31531,50.00000,50.00000,1.317230e-08,0.78719,5
369.741,1261.31,     11.92046,     51.99429,50.00000,50.00000,1.316414e-08,0.78720,5
386.851,1262.1,     12.33609,     50.33653,50.00000,50.00000,1.314589e-08,0.78720,5
404.146,1262.88,     13.11516,     45.35408,50.00000,50.00000,1.317076e-08,0.78719,5
421.366,1263.67,     14.49801,     32.62061,50.00000,50.00000,1.319779e-08,0.78719,5
438.352,1264.46,     15.66086,     10.19714,50.00000,50.00000,1.319399e-08,0.78719,5
455.134,1265.26,     13.31446,     -2.21755,50.00000,50.00000,1.316795e-08,0.78719,5
471.859,1266.05,     11.60297,     -3.14122,50.00000,50.00000,1.316636e-08,0.78720,5
488.312,1266.84,     10.77045,     -3.10653,50.00000,50.00000,1.318588e-08,0.78719,5
504.589,1267.62,     10.15634,     -2.96796,50.00000,50.00000,1.318321e-08,0.78719,5
520.752,1268.41,      9.58849,     -2.79490,50.00000,50.00000,1.318209e-08,0.78719,5
536.815,1269.2,      9.01282,     -2.60327,50.00000,50.00000,1.318158e-08,0.78719,5
552.821,1269.99,      8.45360,     -2.43694,50.00000,50.00000,1.317272e-08,0.78719,5
568.775,1270.79,      7.88984,     -2.27061,50.00000,50.00000,1.317335e-08,0.78720,5
584.729,1271.58,      7.29535,     -2.10449,50.00000,50.00000,1.319199e-08,0.78719,5
600.664,1272.37,      6.70130,     -1.93592,50.00000,50.00000,1.315351e-08,0.78719,5
616.586,1273.15,      6.06217,     -1.81816,50.00000,50.00000,1.319404e-08,0.78718,5
632.476,1273.94,      5.40404,     -1.67959,50.00000,50.00000,1.317294e-08,0.78719,5
648.354,1274.73,      4.72405,     -1.53878,50.00000,50.00000,1.314920e-08,0.78719,5
664.232,1275.53,      3.99950,     -1.40020,50.00000,50.00000,1.317789e-08,0.78719,5
680.097,1276.32,      3.24098,     -1.26184,50.00000,50.00000,1.316164e-08,0.78719,5
695.998,1277.11,      2.46404,     -1.12327,50.00000,50.00000,1.313446e-08,0.78718,5
711.892,1277.89,      1.63590,     -1.00551,50.00000,50.00000,1.318188e-08,0.78718,5
727.803,1278.68,      0.79080,     -0.92224,50.00000,50.00000,1.316670e-08,0.78719,5
743.722,1279.47,-7.722092e-02,     -0.79082,50.00000,50.00000,1.315624e-08,0.78719,5
759.615,1280.27,     -0.92264,     -0.67306,50.00000,50.00000,1.316385e-08,0.78720,5
775.502,1281.06,     -1.68424,     -0.53204,50.00000,50.00000,1.317625e-08,0.78718,5
791.392,1281.85,     -2.33098,     -0.41898,50.00000,50.00000,            ,0.44834,5
794.509,1282,     -2.44338,     -0.39122,50.00000,50.00000,            ,0.44709,5