File: data/TGA/commercial_samples/ExpDat_2025_08_14_SL_PS_Cup_Lid_dynamic.csv
#EXPORTTYPE:                 ,DATA ALL
#FILE:                       ,2025_08_14_SL_PS_Cup_Lid_dynamic.ngb-ss5
#FORMAT:                     ,NETZSCH5
#FTYPE:                      ,ASCII
#IDENTITY:                   ,PS-Coffee-Lid
#DECIMAL:                    ,POINT
#SEPARATOR:                  ,COMMA
#MTYPE:                      ,TG
#INSTRUMENT:                 ,NETZSCH STA 449F5
#PROJECT:                    ,
#DATE/TIME:                  ,8/14/2025 3:28:47 PM (UTC-4)
#CORR. FILE:                 ,
#TEMPCAL:                    ,05-05-2025 14:38
#SENSITIVITY:                ,28-06-2023 13:53
#LABORATORY:                 ,Tran/AAG
#OPERATOR:                   ,Stanley
#REMARK:                     ,2025_03_20_Styrofoam_dynamic
#SAMPLE:                     ,PS-Coffee-Lid
#SAMPLE MASS /mg:            ,4.46
#MATERIAL:                   ,Polystyrene
#REFERENCE:                  ,
#REFERENCE MASS /mg:         ,0
#TYPE OF CRUCIBLE:           ,Al2O3 85 ‘l, open
#SAMPLE CRUCIBLE MASS /mg:   ,0
#REFERENCE CRUCIBLE MASS /mg:,0
#DSC RANGE /‘V:              ,5000
#TG RANGE /mg:               ,35000
#TAU-R:                      ,---
#CORR. CODE:                 ,000
#EXO:                        ,-1
#RANGE:                      ,20›C....800›C/0.0....20.0K/min
#SEGMENT:                    ,S1-4/4
#SEG. 1:                     ,20›C/5.0(K/min)/100›C
#SEG. 2:                     ,100›C/00:05/100›C
#SEG. 3:                     ,100›C/1.0(K/min)/400›C
#SEG. 4:                     ,400›C/20.0(K/min)/800›C

##Temp./›C,Time/min,Mass/%,Sensit./(uV/mW),Segment
 34.86300,  0.00000,    100,0.92438,1
 47.02400,  2.40000,     85.69327,0.92576,1
 48.81900,  4.80000,     84.71166,0.92589,1
 48.17700,  7.20000,     83.85426,0.92585,1
 52.41500,  9.60000,     85.82780,0.92607,1
 64.12200, 12.00000,     87.91794,0.92611,1
 79.89900, 14.40000,     89.20404,0.92482,1
 95.02300, 16.60000,     89.66323,0.92219,2
102.482, 18.40000,     88.43027,0.92040,2
106.162, 20.20000,     87.59574,0.91940,2
107.16, 22.33333,     86.81951,0.91912,3
107.33, 24.73333,     86.51256,0.91907,3
107.656, 27.13333,     86.39081,0.91897,3
108.699, 29.53333,     86.39843,0.91867,3
110.418, 31.93333,     86.45942,0.91815,3
112.582, 34.33333,     86.51009,0.91748,3
114.994, 36.73333,     86.56345,0.91670,3
117.487, 39.13333,     86.57848,0.91586,3
119.989, 41.53333,     86.59372,0.91499,3
122.472, 43.93333,     86.62422,0.91409,3
124.918, 46.33333,     86.66233,0.91317,3
127.333, 48.73333,     86.70785,0.91223,3
129.765, 51.13333,     86.73834,0.91125,3
132.148, 53.53333,     86.78408,0.91027,3
134.532, 55.93333,     86.87534,0.90926,3
136.951, 58.33333,     86.93632,0.90820,3
139.357, 60.73333,     87.00471,0.90712,3
141.755, 63.13333,     87.08094,0.90601,3
144.152, 65.53333,     87.14933,0.90488,3
146.55, 67.93333,     87.21525,0.90372,3
148.964, 70.33333,     87.29148,0.90252,3
151.367, 72.73333,     87.37511,0.90131,3
153.791, 75.13333,     87.45381,0.90005,3
156.171, 77.53333,     87.49170,0.89879,3
158.58, 79.93333,     87.58318,0.89749,3
160.974, 82.33333,     87.64148,0.89618,3
163.377, 84.73333,     87.71749,0.89483,3
165.777, 87.13333,     87.79372,0.89346,3
168.184, 89.53333,     87.83161,0.89206,3
170.588, 91.93333,     87.87982,0.89064,3
172.979, 94.33333,     87.95852,0.88920,3
175.369, 96.73333,     88.01928,0.88773,3
177.776, 99.13333,     88.05493,0.88624,3
180.185,101.533,     88.14619,0.88472,3
182.57,103.933,     88.19193,0.88319,3
184.982,106.333,     88.26794,0.88162,3
187.38,108.733,     88.31368,0.88004,3
189.787,111.133,     88.35179,0.87843,3
192.185,113.533,     88.41256,0.87681,3
194.58,115.933,     88.46592,0.87516,3
196.98,118.333,     88.51906,0.87350,3
199.374,120.733,     88.52668,0.87181,3
201.777,123.133,     88.56480,0.87010,3
204.182,125.533,     88.57735,0.86837,3
206.57,127.933,     88.63072,0.86663,3
208.981,130.333,     88.63834,0.86486,3
211.369,132.733,     88.69170,0.86308,3
213.767,135.133,     88.70673,0.86128,3
216.176,137.533,     88.72197,0.85945,3
218.553,139.933,     88.72960,0.85763,3
220.955,142.333,     88.79821,0.85577,3
223.361,144.733,     88.76771,0.85390,3
225.771,147.133,     88.77287,0.85200,3
228.156,149.533,     88.76525,0.85010,3
230.575,151.933,     88.76525,0.84817,3
232.971,154.333,     88.76771,0.84623,3
235.371,156.733,     88.76009,0.84428,3
237.765,159.133,     88.75247,0.84232,3
240.155,161.533,     88.74484,0.84034,3
242.554,163.933,     88.72960,0.83835,3
244.958,166.333,     88.69910,0.83633,3
247.351,168.733,     88.67646,0.83431,3
249.741,171.133,     88.68901,0.83229,3
252.154,173.533,     88.65852,0.83022,3
254.56,175.933,     88.62063,0.82816,3
256.954,178.333,     88.59776,0.82609,3
259.35,180.733,     88.56726,0.82400,3
261.739,183.133,     88.51413,0.82192,3
264.151,185.533,     88.52915,0.81980,3
266.56,187.933,     88.47354,0.81767,3
268.942,190.333,     88.43296,0.81556,3
271.355,192.733,     88.42018,0.81340,3
273.736,195.133,     88.39731,0.81127,3
276.142,197.533,     88.32130,0.80911,3
278.555,199.933,     88.29843,0.80693,3
280.961,202.333,     88.25269,0.80474,3
283.333,204.733,     88.21973,0.80259,3
285.741,207.133,     88.18924,0.80038,3
288.147,209.533,     88.17422,0.79818,3
290.543,211.933,     88.14126,0.79597,3
292.936,214.333,     88.11839,0.79376,3
295.336,216.733,     88.08789,0.79154,3
297.741,219.133,     88.05740,0.78931,3
300.14,221.533,     88.02691,0.78708,3
302.543,223.933,     88.00673,0.78483,3
304.939,226.333,     87.99148,0.78259,3
307.336,228.733,     87.93812,0.78034,3
309.734,231.133,     87.93318,0.77809,3
312.131,233.533,     87.92556,0.77583,3
314.541,235.933,     87.90269,0.77356,3
316.942,238.333,     87.86457,0.77129,3
319.339,240.733,     87.84439,0.76902,3
321.738,243.133,     87.83677,0.76674,3
324.13,245.533,     87.80628,0.76447,3
326.547,247.933,     87.75314,0.76218,3
328.936,250.333,     87.76076,0.75991,3
331.341,252.733,     87.72265,0.75762,3
333.738,255.133,     87.65404,0.75533,3
336.128,257.533,     87.57803,0.75305,3
338.534,259.933,     87.55516,0.75076,3
340.941,262.333,     87.44865,0.74846,3
343.339,264.733,     87.36502,0.74617,3
345.745,267.133,     87.28117,0.74387,3
348.126,269.533,     87.15179,0.74160,3
350.521,271.933,     87.00717,0.73932,3
352.928,274.333,     86.85516,0.73702,3
355.34,276.733,     86.64193,0.73472,3
357.726,279.133,     86.37309,0.73244,3
360.138,281.533,     86.04596,0.73014,3
362.533,283.933,     85.64753,0.72786,3
364.931,286.333,     85.16816,0.72558,3
367.326,288.733,     84.58229,0.72330,3
369.739,291.133,     83.86682,0.72101,3
372.138,293.533,     82.96637,0.71873,3
374.524,295.933,     81.90359,0.71647,3
376.925,298.333,     80.50336,0.71420,3
379.319,300.733,     78.76323,0.71194,3
381.712,303.133,     76.58677,0.70968,3
384.12,305.533,     73.58857,0.70741,3
386.53,307.933,     69.81143,0.70515,3
388.918,310.333,     65.12623,0.70290,3
391.317,312.733,     59.65717,0.70066,3
393.717,315.133,     53.45516,0.69841,3
396.131,317.533,     46.80426,0.69616,3
398.524,319.933,     39.90695,0.69394,3
399.713,321.1,     36.52578,0.69283,4
400.221,321.28,     36.09955,0.69236,4
401.472,321.46,     35.82309,0.69120,4
403.593,321.64,     35.57197,0.68924,4
406.482,321.82,     35.31323,0.68657,4
409.901,322,     34.87691,0.68342,4
413.559,322.18,     34.30359,0.68007,4
417.191,322.36,     33.53004,0.67676,4
420.649,322.54,     32.50269,0.67362,4
423.891,322.72,     31.29776,0.67069,4
426.955,322.9,     29.86951,0.66793,4
429.909,323.08,     28.32466,0.66529,4
432.882,323.26,     26.59978,0.66264,4
435.945,323.44,     24.67197,0.65992,4
439.172,323.62,     22.57668,0.65707,4
442.557,323.8,     20.33946,0.65409,4
446.093,323.98,     17.95000,0.65100,4
449.74,324.16,     15.43363,0.64784,4
453.443,324.34,     12.77018,0.64464,4
457.171,324.52,     10.10157,0.64145,4
460.897,324.7,      7.50157,0.63828,4
464.626,324.88,      5.08677,0.63513,4
468.324,325.06,      2.97108,0.63203,4
472.043,325.24,      1.19798,0.62894,4
475.76,325.42,     -0.27332,0.62587,4
479.484,325.6,     -1.50852,0.62282,4
483.253,325.78,     -2.54865,0.61975,4
487.016,325.96,     -3.42892,0.61672,4
490.802,326.14,     -4.14664,0.61370,4
494.605,326.32,     -4.69978,0.61068,4
498.388,326.5,     -5.05740,0.60771,4
502.175,326.68,     -5.34910,0.60477,4
505.952,326.86,     -5.44798,0.60186,4
509.735,327.04,     -5.50897,0.59897,4
513.504,327.22,     -5.50897,0.59611,4
517.272,327.4,     -5.47848,0.59329,4
521.041,327.58,     -5.44798,0.59049,4
524.794,327.76,     -5.42511,0.58773,4
528.55,327.94,     -5.39462,0.58500,4
532.305,328.12,     -5.33386,0.58229,4
536.056,328.3,     -5.30336,0.57962,4
539.796,328.48,     -5.24260,0.57698,4
543.552,328.66,     -5.21211,0.57435,4
547.272,328.84,     -5.18161,0.57178,4
551.015,329.02,     -5.15112,0.56921,4
554.74,329.2,     -5.09036,0.56669,4
558.467,329.38,     -5.02937,0.56419,4
562.174,329.56,     -4.99910,0.56173,4
565.892,329.74,     -4.96592,0.55929,4
569.599,329.92,     -4.90516,0.55689,4
573.312,330.1,     -4.87466,0.55450,4
577.016,330.28,     -4.85179,0.55215,4
580.719,330.46,     -4.81390,0.54982,4
584.407,330.64,     -4.71996,0.54753,4
588.115,330.82,     -4.73520,0.54525,4
591.804,331,     -4.67422,0.54301,4
595.499,331.18,     -4.64395,0.54078,4
599.185,331.36,     -4.58296,0.53859,4
602.858,331.54,     -4.55247,0.53643,4
606.541,331.72,     -4.52220,0.53429,4
610.212,331.9,     -4.46121,0.53217,4
613.89,332.08,     -4.43072,0.53008,4
617.56,332.26,     -4.40045,0.52801,4
621.226,332.44,     -4.36996,0.52596,4
624.905,332.62,     -4.30897,0.52394,4
628.566,332.8,     -4.27870,0.52194,4
632.22,332.98,     -4.24552,0.51997,4
635.882,333.16,     -4.21525,0.51801,4
639.544,333.34,     -4.18475,0.51607,4
643.192,333.52,     -4.17713,0.51416,4
646.845,333.7,     -4.12377,0.51227,4
650.496,333.88,     -4.11614,0.51040,4
654.153,334.06,     -4.08587,0.50855,4
657.803,334.24,     -4.10874,0.50671,4
661.455,334.42,     -4.07825,0.50490,4
665.092,334.6,     -4.06300,0.50310,4
668.744,334.78,     -4.07825,0.50132,4
672.391,334.96,     -4.04776,0.49956,4
676.036,335.14,     -4.04013,0.49781,4
679.684,335.32,     -4.01726,0.49608,4
683.311,335.5,     -4.01726,0.49437,4
686.968,335.68,     -3.95650,0.49267,4
690.606,335.86,     -3.98677,0.49099,4
694.253,336.04,     -3.92601,0.48931,4
697.898,336.22,     -3.92601,0.48766,4
701.541,336.4,     -3.86502,0.48601,4
705.196,336.58,     -3.83475,0.48438,4
708.843,336.76,     -3.79664,0.48276,4
712.477,336.94,     -3.77377,0.48115,4
716.117,337.12,     -3.77377,0.47956,4
719.759,337.3,     -3.68251,0.47797,4
723.395,337.48,     -3.65202,0.47640,4
727.043,337.66,     -3.62152,0.47484,4
730.675,337.84,     -3.59126,0.47329,4
734.32,338.02,     -3.56076,0.47174,4
737.953,338.2,     -3.49978,0.47020,4
741.585,338.38,     -3.46951,0.46868,4
745.229,338.56,     -3.43901,0.46716,4
748.871,338.74,     -3.40852,0.46564,4
752.501,338.92,     -3.34753,0.46414,4
756.133,339.1,     -3.31726,0.46264,4
759.772,339.28,     -3.28677,0.46115,4
763.406,339.46,     -3.23857,0.45966,4
767.045,339.64,     -3.22332,0.45818,4
770.683,339.82,     -3.15740,0.45670,4
774.323,340,     -3.12691,0.45522,4
777.951,340.18,     -3.09641,0.45375,4
781.59,340.36,     -3.05852,0.45228,4
785.229,340.54,     -3.00516,0.45082,4
788.854,340.72,     -2.97466,0.44936,4
792.477,340.9,     -2.94439,0.44790,4
794.487,341,     -2.94439,0.44710,4