File: data/TGA/commercial_samples/ExpDat_2025_08_14_SL_PS_Blue_Cup_Dynamic.csv
#EXPORTTYPE:                 ,DATA ALL
#FILE:                       ,2025_08_14_SL_PS_Blue_Cup_Dynamic.ngb-ss5
#FORMAT:                     ,NETZSCH5
#FTYPE:                      ,ASCII
#IDENTITY:                   ,PS-Blue-Cup
#DECIMAL:                    ,POINT
#SEPARATOR:                  ,COMMA
#MTYPE:                      ,TG
#INSTRUMENT:                 ,NETZSCH STA 449F5
#PROJECT:                    ,
#DATE/TIME:                  ,8/14/2025 8:52:56 AM (UTC-4)
#CORR. FILE:                 ,
#TEMPCAL:                    ,05-05-2025 14:38
#SENSITIVITY:                ,28-06-2023 13:53
#LABORATORY:                 ,Tran/AAG
#OPERATOR:                   ,Stanley
#REMARK:                     ,2025_03_20_Styrofoam_dynamic
#SAMPLE:                     ,PS-Blue-Cup
#SAMPLE MASS /mg:            ,4.75
#MATERIAL:                   ,Polystyrene
#REFERENCE:                  ,
#REFERENCE MASS /mg:         ,0
#TYPE OF CRUCIBLE:           ,Al2O3 85 ‘l, open
#SAMPLE CRUCIBLE MASS /mg:   ,0
#REFERENCE CRUCIBLE MASS /mg:,0
#DSC RANGE /‘V:              ,5000
#TG RANGE /mg:               ,35000
#TAU-R:                      ,---
#CORR. CODE:                 ,000
#EXO:                        ,-1
#RANGE:                      ,20›C....800›C/0.0....20.0K/min
#SEGMENT:                    ,S1-4/4
#SEG. 1:                     ,20›C/5.0(K/min)/100›C
#SEG. 2:                     ,100›C/00:05/100›C
#SEG. 3:                     ,100›C/1.0(K/min)/400›C
#SEG. 4:                     ,400›C/20.0(K/min)/800›C

##Temp./›C,Time/min,Mass/%,Sensit./(uV/mW),Segment
 28.87700,  0.00000,    100,0.92334,1
 33.18300,  2.40000,     90.86105,0.92411,1
 37.00700,  4.80000,     91.10400,0.92469,1
 45.53800,  7.20000,     92.05432,0.92565,1
 58.14000,  9.60000,     93.04526,0.92620,1
 72.67000, 12.00000,     93.65726,0.92560,1
 87.35300, 14.40000,     93.91453,0.92369,1
100.012, 16.58417,     93.85495,0.92102,2
105.569, 18.38417,     92.52126,0.91957,2
107.771, 20.18417,     91.65432,0.91894,2
107.665, 22.33417,     90.74211,0.91897,3
107.205, 24.73417,     90.30611,0.91910,3
107.328, 27.13417,     90.13474,0.91907,3
108.384, 29.53417,     90.09895,0.91876,3
110.205, 31.93417,     90.03474,0.91822,3
112.49, 34.33417,     90.00611,0.91751,3
114.985, 36.73417,     89.98463,0.91670,3
117.518, 39.13417,     89.92737,0.91585,3
120.058, 41.53417,     89.85600,0.91496,3
122.538, 43.93417,     89.85600,0.91406,3
124.968, 46.33417,     89.82989,0.91315,3
127.406, 48.73417,     89.85832,0.91220,3
129.819, 51.13417,     89.82737,0.91123,3
132.232, 53.53417,     89.85832,0.91023,3
134.607, 55.93417,     89.89179,0.90922,3
137.015, 58.33417,     89.91326,0.90817,3
139.423, 60.73417,     89.94884,0.90709,3
141.824, 63.13417,     90.02042,0.90598,3
144.212, 65.53417,     90.07032,0.90485,3
146.632, 67.93417,     90.12758,0.90368,3
149.027, 70.33417,     90.20611,0.90249,3
151.424, 72.73417,     90.24189,0.90128,3
153.821, 75.13417,     90.29432,0.90004,3
156.236, 77.53417,     90.34421,0.89876,3
158.637, 79.93417,     90.42042,0.89746,3
161.051, 82.33417,     90.48232,0.89613,3
163.452, 84.73417,     90.54674,0.89479,3
165.856, 87.13417,     90.58484,0.89341,3
168.243, 89.53417,     90.66337,0.89202,3
170.641, 91.93417,     90.71347,0.89060,3
173.04, 94.33417,     90.76337,0.88916,3
175.431, 96.73417,     90.83726,0.88770,3
177.823, 99.13417,     90.88968,0.88621,3
180.239,101.534,     90.92547,0.88468,3
182.632,103.934,     90.98737,0.88315,3
185.044,106.334,     91.04442,0.88158,3
187.444,108.734,     91.06126,0.88000,3
189.847,111.134,     91.10400,0.87839,3
192.228,113.534,     91.08253,0.87678,3
194.631,115.934,     91.16842,0.87513,3
197.038,118.334,     91.19221,0.87346,3
199.431,120.734,     91.24211,0.87177,3
201.836,123.134,     91.29221,0.87006,3
204.248,125.534,     91.31368,0.86832,3
206.638,127.934,     91.37074,0.86658,3
209.043,130.334,     91.39937,0.86481,3
211.44,132.734,     91.45663,0.86303,3
213.841,135.134,     91.46379,0.86123,3
216.241,137.534,     91.45663,0.85940,3
218.637,139.934,     91.48505,0.85757,3
221.036,142.334,     91.49474,0.85571,3
223.425,144.734,     91.52316,0.85385,3
225.83,147.134,     91.55895,0.85195,3
228.228,149.534,     91.52800,0.85005,3
230.619,151.934,     91.54232,0.84813,3
233.025,154.334,     91.54232,0.84619,3
235.43,156.734,     91.55663,0.84423,3
237.814,159.134,     91.54716,0.84228,3
240.22,161.534,     91.52568,0.84029,3
242.613,163.934,     91.51137,0.83830,3
245.038,166.334,     91.52084,0.83627,3
247.422,168.734,     91.51368,0.83425,3
249.822,171.134,     91.44695,0.83222,3
252.222,173.534,     91.45411,0.83017,3
254.606,175.934,     91.43284,0.82812,3
257.022,178.334,     91.44695,0.82603,3
259.424,180.734,     91.38042,0.82394,3
261.813,183.134,     91.35179,0.82185,3
264.221,185.534,     91.33032,0.81974,3
266.624,187.934,     91.29453,0.81761,3
269.021,190.334,     91.25895,0.81549,3
271.405,192.734,     91.23516,0.81336,3
273.82,195.134,     91.19705,0.81120,3
276.208,197.534,     91.12547,0.80905,3
278.602,199.934,     91.08968,0.80688,3
281.007,202.334,     91.01832,0.80470,3
283.4,204.734,     90.97537,0.80252,3
285.802,207.134,     90.93263,0.80033,3
288.211,209.534,     90.86358,0.79812,3
290.595,211.934,     90.79916,0.79593,3
293.004,214.334,     90.75642,0.79370,3
295.408,216.734,     90.69916,0.79148,3
297.813,219.134,     90.61347,0.78924,3
300.199,221.534,     90.54189,0.78702,3
302.598,223.934,     90.44905,0.78478,3
304.986,226.334,     90.36337,0.78255,3
307.397,228.734,     90.29179,0.78028,3
309.809,231.134,     90.14905,0.77802,3
312.221,233.534,     90.08000,0.77575,3
314.616,235.934,     89.99411,0.77349,3
317.018,238.334,     89.85832,0.77122,3
319.425,240.734,     89.75116,0.76894,3
321.811,243.134,     89.60126,0.76668,3
324.216,245.534,     89.44400,0.76439,3
326.613,247.934,     89.26295,0.76211,3
329.012,250.334,     89.04147,0.75983,3
331.405,252.734,     88.77705,0.75755,3
333.808,255.134,     88.44126,0.75526,3
336.208,257.534,     88.06021,0.75298,3
338.604,259.934,     87.53853,0.75069,3
341.005,262.334,     86.92653,0.74840,3
343.407,264.734,     86.18800,0.74611,3
345.806,267.134,     85.31874,0.74382,3
348.195,269.534,     84.21600,0.74154,3
350.588,271.934,     82.77495,0.73925,3
352.999,274.334,     81.15305,0.73695,3
355.4,276.734,     79.20947,0.73466,3
357.8,279.134,     76.79684,0.73237,3
360.198,281.534,     73.82674,0.73009,3
362.595,283.934,     70.12316,0.72780,3
364.991,286.334,     65.62632,0.72552,3
367.383,288.734,     60.36968,0.72325,3
369.783,291.134,     54.13432,0.72097,3
372.187,293.534,     47.00084,0.71869,3
374.594,295.934,     39.15305,0.71641,3
377.004,298.334,     30.75495,0.71413,3
379.398,300.734,     22.40442,0.71186,3
381.794,303.134,     14.35874,0.70960,3
384.197,305.534,      7.47558,0.70734,3
386.618,307.934,      2.22379,0.70506,3
389.005,310.334,     -1.31811,0.70282,3
391.413,312.734,     -3.37347,0.70057,3
393.796,315.134,     -4.39284,0.69834,3
396.196,317.534,     -4.90021,0.69610,3
398.591,319.934,     -5.15979,0.69387,3
399.717,321.039,     -5.23832,0.69283,4
400.265,321.219,     -5.17895,0.69232,4
401.532,321.399,     -4.98358,0.69114,4
403.676,321.579,     -4.70484,0.68916,4
406.579,321.759,     -4.42863,0.68648,4
410.002,321.939,     -4.23326,0.68333,4
413.642,322.119,     -4.07600,0.68000,4
417.257,322.299,     -4.01895,0.67670,4
420.684,322.479,     -3.99032,0.67359,4
423.928,322.659,     -3.99032,0.67066,4
426.982,322.839,     -4.01895,0.66791,4
429.941,323.019,     -4.01895,0.66526,4
432.936,323.199,     -4.04758,0.66259,4
436.005,323.379,     -3.99032,0.65986,4
439.234,323.559,     -3.96168,0.65701,4
442.618,323.739,     -3.90232,0.65404,4
446.172,323.919,     -3.81642,0.65094,4
449.811,324.099,     -3.78779,0.64778,4
453.531,324.279,     -3.73074,0.64457,4
457.256,324.459,     -3.68779,0.64138,4
460.991,324.639,     -3.67347,0.63820,4
464.714,324.819,     -3.62358,0.63506,4
468.414,324.999,     -3.60211,0.63196,4
472.125,325.179,     -3.58779,0.62887,4
475.849,325.359,     -3.53074,0.62579,4
479.566,325.539,     -3.53074,0.62275,4
483.324,325.719,     -3.45200,0.61970,4
487.076,325.899,     -3.42358,0.61667,4
490.855,326.079,     -3.35916,0.61365,4
494.655,326.259,     -3.33053,0.61065,4
498.431,326.439,     -3.30211,0.60768,4
502.224,326.619,     -3.23768,0.60473,4
505.999,326.799,     -3.20905,0.60182,4
509.779,326.979,     -3.18063,0.59893,4
513.544,327.159,     -3.15200,0.59608,4
517.317,327.339,     -3.09474,0.59326,4
521.08,327.519,     -3.06632,0.59046,4
524.839,327.699,     -3.03768,0.58770,4
528.602,327.879,     -2.98042,0.58496,4
532.361,328.059,     -2.98042,0.58225,4
536.112,328.239,     -2.92337,0.57958,4
539.867,328.419,     -2.89474,0.57693,4
543.602,328.599,     -2.86611,0.57432,4
547.347,328.779,     -2.83747,0.57172,4
551.077,328.959,     -2.78042,0.56917,4
554.801,329.139,     -2.78042,0.56665,4
558.535,329.319,     -2.75179,0.56415,4
562.253,329.499,     -2.69221,0.56168,4
565.965,329.679,     -2.64947,0.55925,4
569.683,329.859,     -2.63516,0.55683,4
573.389,330.039,     -2.59221,0.55445,4
577.092,330.219,     -2.55642,0.55210,4
580.803,330.399,     -2.52084,0.54977,4
584.499,330.579,     -2.49221,0.54747,4
588.189,330.759,     -2.43495,0.54521,4
591.887,330.939,     -2.43495,0.54296,4
595.579,331.119,     -2.37789,0.54074,4
599.264,331.299,     -2.35642,0.53854,4
602.945,331.479,     -2.32063,0.53638,4
606.641,331.659,     -2.26126,0.53423,4
610.315,331.839,     -2.26126,0.53211,4
613.994,332.019,     -2.23263,0.53002,4
617.679,332.199,     -2.17537,0.52794,4
621.354,332.379,     -2.17537,0.52589,4
625.029,332.559,     -2.14695,0.52387,4
628.692,332.739,     -2.10400,0.52187,4
632.351,332.919,     -2.06105,0.51990,4
636.01,333.099,     -2.03263,0.51794,4
639.672,333.279,     -2.00400,0.51601,4
643.33,333.459,     -1.97305,0.51409,4
646.97,333.639,     -1.94442,0.51221,4
650.637,333.819,     -1.91579,0.51033,4
654.283,333.999,     -1.88716,0.50848,4
657.927,334.179,     -1.84442,0.50665,4
661.581,334.359,     -1.81579,0.50483,4
665.224,334.539,     -1.77284,0.50304,4
668.876,334.719,     -1.77284,0.50126,4
672.514,334.899,     -1.74442,0.49950,4
676.162,335.079,     -1.71579,0.49775,4
679.807,335.259,     -1.68716,0.49602,4
683.46,335.439,     -1.65853,0.49430,4
687.099,335.619,     -1.61579,0.49261,4
690.737,335.799,     -1.60147,0.49093,4
694.379,335.979,     -1.57284,0.48926,4
698.023,336.159,     -1.54421,0.48760,4
701.659,336.339,     -1.51579,0.48596,4
705.304,336.519,     -1.49432,0.48433,4
708.946,336.699,     -1.45853,0.48271,4
712.592,336.879,     -1.42989,0.48110,4
716.226,337.059,     -1.40126,0.47951,4
719.868,337.239,     -1.37284,0.47793,4
723.494,337.419,     -1.35137,0.47636,4
727.132,337.599,     -1.31558,0.47480,4
730.773,337.779,     -1.31558,0.47324,4
734.42,337.959,     -1.28695,0.47170,4
738.06,338.139,     -1.25853,0.47016,4
741.689,338.319,     -1.22989,0.46864,4
745.322,338.499,     -1.20126,0.46712,4
748.954,338.679,     -1.14421,0.46561,4
752.59,338.859,     -1.14421,0.46410,4
756.225,339.039,     -1.11558,0.46260,4
759.859,339.219,     -1.02505,0.46111,4
763.501,339.399,     -1.05368,0.45962,4
767.135,339.579,     -1.05368,0.45814,4
770.774,339.759,     -0.99642,0.45666,4
774.398,339.939,     -0.99642,0.45519,4
778.017,340.119,     -0.96779,0.45373,4
781.647,340.299,     -0.91074,0.45226,4
785.279,340.479,     -0.91074,0.45080,4
788.911,340.659,     -0.88211,0.44934,4
792.526,340.839,     -0.85347,0.44788,4
794.442,340.934,     -0.85347,0.44711,4