File: data/TGA/commercial_samples/ExpDat_2025_08_23_SL_PS_Petri_Dish_SCF3_250721_P5EER2_dynamic.csv
#EXPORTTYPE:                 ,DATA ALL
#FILE:                       ,2025_08_23_SL_PS_Petri_Dish_SCF3_250721_P5EER2_V1_2_Dynamic.ngb-ss5
#FORMAT:                     ,NETZSCH5
#FTYPE:                      ,ASCII
#IDENTITY:                   ,PS-Petri-Dish-SCF3
#DECIMAL:                    ,POINT
#SEPARATOR:                  ,COMMA
#MTYPE:                      ,DSC
#INSTRUMENT:                 ,NETZSCH STA 449F5
#PROJECT:                    ,Polystyrene
#DATE/TIME:                  ,8/23/2025 10:46:43 AM (UTC-4)
#CORR. FILE:                 ,
#TEMPCAL:                    ,05-05-2025 14:38
#SENSITIVITY:                ,28-06-2023 13:53
#LABORATORY:                 ,Tran/AAG
#OPERATOR:                   ,Stanley
#REMARK:                     ,2025_03_20_Styrofoam_dynamic
#SAMPLE:                     ,PS-Petri-Dish-SCF3
#SAMPLE MASS /mg:            ,4.5
#MATERIAL:                   ,Polystyrene
#REFERENCE:                  ,
#REFERENCE MASS /mg:         ,0
#TYPE OF CRUCIBLE:           ,Al2O3 85 ‘l, open
#SAMPLE CRUCIBLE MASS /mg:   ,0
#REFERENCE CRUCIBLE MASS /mg:,0
#DSC RANGE /‘V:              ,5000
#TG RANGE /mg:               ,35000
#TAU-R:                      ,---
#CORR. CODE:                 ,000
#EXO:                        ,-1
#RANGE:                      ,20›C....800›C/0.0....20.0K/min
#SEGMENT:                    ,S1-4/4
#SEG. 1:                     ,20›C/5.0(K/min)/100›C
#SEG. 2:                     ,100›C/00:05/100›C
#SEG. 3:                     ,100›C/1.0(K/min)/400›C
#SEG. 4:                     ,400›C/20.0(K/min)/800›C

##Temp./›C,Time/min,DSC/(mW/mg),Mass/%,Gas Flow(purge2)/(ml/min),Gas Flow(protective)/(ml/min),TIC(scan:1)/A,Sensit./(uV/mW),Segment
 31.12600,  0.00000,      0.41259,100,50.00000,50.00000,            ,0.92376,1
 37.15000,  4.80000,      0.48348,101.013,50.00000,50.00000,1.018819e-08,0.92413,1
 57.82800,  9.60000,      1.67602,103.424,50.00000,50.00000,1.017702e-08,0.92444,1
 86.90200, 14.40000,      2.07980,104.397,50.00000,50.00000,1.019311e-08,0.92500,1
105.426, 18.39917,      0.98395,102.977,50.00000,50.00000,1.016461e-08,0.92563,2
107.754, 22.33250,-7.711953e-02,101.016,50.00000,50.00000,1.013898e-08,0.92609,3
107.356, 27.13250, 2.822443e-02,100.342,50.00000,50.00000,1.016282e-08,0.92612,3
110.099, 31.93250,      0.29339,100.191,50.00000,50.00000,1.014602e-08,0.92533,3
114.86, 36.73250,      0.39947,100.078,50.00000,50.00000,1.015984e-08,0.92377,3
119.932, 41.53250,      0.40782, 99.89933,50.00000,50.00000,1.016183e-08,0.92162,3
124.89, 46.33250,      0.40029, 99.79378,50.00000,51.00000,1.013513e-08,0.92009,3
129.722, 51.13250,      0.39759, 99.73600,50.00000,51.00000,1.014793e-08,0.91928,3
134.519, 55.93250,      0.39847, 99.74356,50.00000,51.00000,1.015078e-08,0.91891,3
139.315, 60.73250,      0.40220, 99.74356,50.00000,51.00000,1.013274e-08,0.91894,3
144.116, 65.53250,      0.40264, 99.78378,50.00000,51.00000,1.014035e-08,0.91905,3
148.936, 70.33250,      0.39918, 99.81400,50.00000,51.00000,1.011715e-08,0.91911,3
153.74, 75.13250,      0.39688, 99.84156,50.00000,51.00000,1.012381e-08,0.91900,3
158.519, 79.93250,      0.39480, 99.84667,50.00000,51.00000,1.015025e-08,0.91874,3
163.35, 84.73250,      0.39238, 99.90689,50.00000,51.00000,1.009747e-08,0.91833,3
168.129, 89.53250,      0.38694, 99.90444,50.00000,51.00000,1.012780e-08,0.91780,3
172.939, 94.33250,      0.38285, 99.89200,50.00000,51.00000,1.010678e-08,0.91720,3
177.727, 99.13250,      0.37801, 99.86933,50.00000,51.00000,1.011443e-08,0.91654,3
182.541,103.933,      0.37183, 99.81889,50.00000,51.00000,1.011890e-08,0.91586,3
187.327,108.733,      0.36680, 99.73356,50.00000,51.00000,1.012174e-08,0.91518,3
192.138,113.532,      0.35945, 99.62044,50.00000,51.00000,1.010754e-08,0.91445,3
196.943,118.332,      0.35247, 99.48956,50.00000,51.00000,1.011473e-08,0.91374,3
201.757,123.132,      0.34430, 99.34644,50.00000,51.00000,1.008400e-08,0.91302,3
206.535,127.933,      0.33765, 99.17289,50.00000,51.00000,1.011433e-08,0.91229,3
211.343,132.732,      0.32883, 98.96667,50.00000,51.00000,1.010288e-08,0.91152,3
216.135,137.532,      0.31641, 98.74800,50.00000,51.00000,1.011446e-08,0.91075,3
220.918,142.333,      0.30529, 98.50911,50.00000,51.00000,1.011035e-08,0.90998,3
225.724,147.132,      0.29072, 98.23267,50.00000,51.00000,1.011486e-08,0.90915,3
230.511,151.933,      0.27484, 97.99889,50.00000,51.00000,1.011038e-08,0.90834,3
235.327,156.732,      0.25422, 97.73978,50.00000,51.00000,1.010591e-08,0.90749,3
240.109,161.532,      0.23705, 97.43311,50.00000,51.00000,1.010419e-08,0.90665,3
244.922,166.333,      0.21771, 97.13400,50.00000,51.00000,1.010168e-08,0.90574,3
249.721,171.132,      0.19454, 96.79444,50.00000,51.00000,1.010100e-08,0.90487,3
254.52,175.933,      0.17257, 96.44000,50.00000,51.00000,1.010425e-08,0.90393,3
259.319,180.732,      0.15102, 96.09311,50.00000,51.00000,1.009365e-08,0.90300,3
264.115,185.532,      0.12222, 95.73111,50.00000,51.00000,1.011537e-08,0.90207,3
268.93,190.333, 9.541813e-02, 95.34400,50.00000,51.00000,1.011574e-08,0.90109,3
273.733,195.132, 7.105405e-02, 94.95178,50.00000,51.00000,1.008829e-08,0.90011,3
278.506,199.933, 4.264965e-02, 94.55956,50.00000,51.00000,1.009246e-08,0.89914,3
283.314,204.732, 1.922288e-02, 94.12200,50.00000,51.00000,1.010630e-08,0.89810,3
288.115,209.532,-1.231941e-02, 93.73489,50.00000,51.00000,1.011515e-08,0.89709,3
292.9,214.333,-4.698838e-02, 93.31000,50.00000,51.00000,1.010308e-08,0.89605,3
297.709,219.132,-8.419770e-02, 92.92044,50.00000,51.00000,1.011057e-08,0.89501,3
302.507,223.933,     -0.12529, 92.50044,50.00000,51.00000,1.009842e-08,0.89390,3
307.301,228.732,     -0.16685, 92.09578,50.00000,51.00000,1.012510e-08,0.89282,3
312.093,233.532,     -0.20781, 91.64311,50.00000,51.00000,1.010705e-08,0.89169,3
316.907,238.333,     -0.25366, 91.15289,50.00000,51.00000,1.010937e-08,0.89059,3
321.727,243.132,     -0.30182, 90.66267,50.00000,51.00000,1.011613e-08,0.88942,3
326.513,247.933,     -0.34878, 90.07933,50.00000,51.00000,1.008933e-08,0.88828,3
331.322,252.732,     -0.39654, 89.42333,50.00000,51.00000,1.010772e-08,0.88714,3
336.122,257.533,     -0.44780, 88.69422,50.00000,51.00000,1.013154e-08,0.88598,3
340.913,262.332,     -0.49652, 87.80422,50.00000,51.00000,1.010118e-08,0.88475,3
345.717,267.132,     -0.55291, 86.62244,50.00000,51.00000,1.008445e-08,0.88356,3
350.523,271.933,     -0.61573, 85.06378,50.00000,51.00000,1.009521e-08,0.88230,3
355.305,276.733,     -0.66386, 82.93689,50.00000,51.00000,1.011007e-08,0.88108,3
360.112,281.533,     -0.71702, 79.85711,50.00000,51.00000,1.009409e-08,0.87985,3
364.916,286.332,     -0.76594, 75.55044,50.00000,51.00000,1.009482e-08,0.87855,3
369.711,291.132,     -0.80722, 69.39089,50.00000,51.00000,1.009185e-08,0.87729,3
374.497,295.933,     -0.85635, 60.98644,50.00000,51.00000,1.011535e-08,0.87601,3
379.306,300.733,     -0.93683, 50.34178,50.00000,51.00000,1.010570e-08,0.87468,3
384.101,305.533,     -1.07943, 38.74178,50.00000,51.00000,1.010191e-08,0.87339,3
388.912,310.332,     -1.29139, 28.12978,50.00000,51.00000,1.009258e-08,0.87208,3
393.703,315.132,     -1.51087, 20.12756,50.00000,52.00000,1.008256e-08,0.87074,3
398.506,319.933,     -1.70507, 14.97356,50.00000,52.00000,1.011063e-08,0.86936,3
400.154,321.279,     -1.46790, 14.01578,50.00000,52.00000,1.011408e-08,0.86899,4
403.302,321.639,      0.92897, 14.23444,50.00000,52.00000,1.009310e-08,0.86888,4
409.396,321.999,      4.53600, 14.52867,50.00000,52.00000,1.010908e-08,0.86879,4
416.577,322.359,      6.94270, 14.48089,50.00000,52.00000,1.009551e-08,0.86869,4
423.264,322.719,      7.43200, 14.15400,50.00000,52.00000,1.009744e-08,0.86860,4
429.297,323.079,      7.01049, 13.62111,50.00000,52.00000,1.010626e-08,0.86850,4
435.346,323.439,      6.85204, 13.06044,50.00000,52.00000,1.010369e-08,0.86835,4
441.932,323.799,      7.31607, 12.50222,50.00000,52.00000,1.011483e-08,0.86826,4
449.088,324.159,      8.03126, 11.82089,50.00000,52.00000,1.008681e-08,0.86816,4
456.535,324.519,      8.54374, 11.05667,50.00000,52.00000,1.008289e-08,0.86806,4
464,324.879,      8.72170, 10.32244,50.00000,52.00000,1.009100e-08,0.86797,4
471.431,325.239,      8.70141,  9.55311,50.00000,52.00000,1.009314e-08,0.86786,4
478.9,325.599,      8.67195,  8.96000,50.00000,52.00000,1.010534e-08,0.86777,4
486.421,325.959,      8.67901,  8.64067,50.00000,52.00000,1.009824e-08,0.86767,4
494.028,326.319,      8.68351,  8.46467,50.00000,52.00000,1.009562e-08,0.86753,4
501.627,326.679,      8.61644,  8.40422,50.00000,52.00000,1.010271e-08,0.86744,4
509.223,327.039,      8.48764,  8.40422,50.00000,52.00000,1.009681e-08,0.86734,4
516.794,327.399,      8.34593,  8.43444,50.00000,52.00000,1.010156e-08,0.86724,4
524.358,327.759,      8.20160,  8.44956,50.00000,52.00000,1.011877e-08,0.86714,4
531.902,328.119,      8.04492,  8.46467,50.00000,52.00000,1.008857e-08,0.86704,4
539.428,328.479,      7.87596,  8.49489,50.00000,52.00000,1.007834e-08,0.86694,4
546.944,328.839,      7.69517,  8.56267,50.00000,52.00000,1.010534e-08,0.86680,4
554.444,329.199,      7.50736,  8.60800,50.00000,52.00000,1.010148e-08,0.86670,4
561.908,329.559,      7.31895,  8.63800,50.00000,52.00000,1.008758e-08,0.86661,4
569.371,329.919,      7.13037,  8.69844,50.00000,52.00000,1.010089e-08,0.86651,4
576.813,330.279,      6.94527,  8.75867,50.00000,52.00000,1.010667e-08,0.86641,4
584.256,330.639,      6.75755,  8.84933,50.00000,52.00000,1.009975e-08,0.86632,4
591.674,330.999,      6.56021,  8.90956,50.00000,52.00000,1.011848e-08,0.86622,4
599.079,331.359,      6.37025,  8.97000,50.00000,52.00000,1.009367e-08,0.86612,4
606.464,331.719,      6.17082,  9.03022,50.00000,52.00000,1.009885e-08,0.86597,4
613.846,332.079,      5.96642,  9.09067,50.00000,52.00000,1.010497e-08,0.86588,4
621.2,332.439,      5.75596,  9.15089,50.00000,52.00000,1.009596e-08,0.86578,4
628.544,332.799,      5.54508,  9.21133,50.00000,52.00000,1.011375e-08,0.86568,4
635.886,333.159,      5.34443,  9.27156,50.00000,52.00000,1.010420e-08,0.86558,4
643.226,333.519,      5.13130,  9.36222,50.00000,52.00000,1.008515e-08,0.86548,4
650.564,333.879,      4.91119,  9.41489,50.00000,52.00000,1.007613e-08,0.86538,4
657.879,334.239,      4.68632,  9.48289,50.00000,52.00000,1.011614e-08,0.86529,4
665.198,334.599,      4.44674,  9.54311,50.00000,52.00000,1.011504e-08,0.86514,4
672.495,334.959,      4.20166,  9.57333,50.00000,52.00000,1.010886e-08,0.86504,4
679.796,335.319,      3.95463,  9.64111,50.00000,52.00000,1.010421e-08,0.86494,4
687.088,335.679,      3.70120,  9.69400,50.00000,52.00000,1.009847e-08,0.86485,4
694.37,336.039,      3.43928,  9.75444,50.00000,52.00000,1.011768e-08,0.86474,4
701.686,336.399,      3.18920,  9.81467,50.00000,52.00000,1.009632e-08,0.86464,4
708.966,336.759,      2.92791,  9.87511,50.00000,52.00000,1.011706e-08,0.86455,4
716.25,337.119,      2.65115,  9.93533,50.00000,52.00000,1.009073e-08,0.86440,4
723.542,337.479,      2.38649,  9.99578,50.00000,52.00000,1.010289e-08,0.86431,4
730.823,337.839,      2.11810, 10.04600,50.00000,52.00000,1.011732e-08,0.86421,4
738.101,338.199,      1.83807, 10.10622,50.00000,52.00000,1.011592e-08,0.86409,4
745.386,338.559,      1.55716, 10.16667,50.00000,52.00000,1.010311e-08,0.86401,4
752.66,338.919,      1.27830, 10.19933,50.00000,52.00000,1.009903e-08,0.86390,4
759.936,339.279,      0.98508, 10.25978,50.00000,52.00000,1.011144e-08,0.86381,4
767.209,339.639,      0.70724, 10.32000,50.00000,52.00000,1.009364e-08,0.86371,4
774.469,339.999,      0.42762, 10.38044,50.00000,52.00000,1.010264e-08,0.86356,4
781.746,340.359,      0.14097, 10.44067,50.00000,52.00000,1.009825e-08,0.86346,4
788.994,340.719,     -0.14943, 10.46844,50.00000,52.00000,            ,0.44930,4
794.66,340.999,     -0.37585, 10.49844,50.00000,52.00000,            ,0.44703,4