File: data/TGA/commercial_samples/ExpDat_2025_09_14_SL_PS_Petri_Dish_SCF3_250912_P5EER7_V1_2_isothermal.csv
#EXPORTTYPE:                 ,DATA ALL
#FILE:                       ,2025_09_14_SL_PS_Petri_Dish_SCF3_250912_P5EER7_V1_2_Isothermal.ngb-ss5
#FORMAT:                     ,NETZSCH5
#FTYPE:                      ,ASCII
#IDENTITY:                   ,P5EER7-V1+2
#DECIMAL:                    ,POINT
#SEPARATOR:                  ,COMMA
#MTYPE:                      ,DSC
#INSTRUMENT:                 ,NETZSCH STA 449F5
#PROJECT:                    ,PS-SCF3
#DATE/TIME:                  ,9/14/2025 9:11:45 PM (UTC-4)
#CORR. FILE:                 ,
#TEMPCAL:                    ,05-05-2025 14:38
#SENSITIVITY:                ,28-06-2023 13:53
#LABORATORY:                 ,Tran
#OPERATOR:                   ,Stanley
#REMARK:                     ,2025_03_29_SL_005d_M1_isothermal
#SAMPLE:                     ,P5EER7-V1+2
#SAMPLE MASS /mg:            ,4.98
#MATERIAL:                   ,Polystyrene
#REFERENCE:                  ,
#REFERENCE MASS /mg:         ,0
#TYPE OF CRUCIBLE:           ,Al2O3 85 ‘l, open
#SAMPLE CRUCIBLE MASS /mg:   ,0
#REFERENCE CRUCIBLE MASS /mg:,0
#DSC RANGE /‘V:              ,5000
#TG RANGE /mg:               ,35000
#TAU-R:                      ,---
#CORR. CODE:                 ,000
#EXO:                        ,-1
#RANGE:                      ,30›C....800›C/0.0....20.0K/min
#SEGMENT:                    ,S1-5/5
#SEG. 1:                     ,30›C/10.0(K/min)/100›C
#SEG. 2:                     ,100›C/00:10/100›C
#SEG. 3:                     ,100›C/5.0(K/min)/300›C
#SEG. 4:                     ,300›C/20:00/300›C
#SEG. 5:                     ,300›C/20.0(K/min)/800›C

##Temp./›C,Time/min,DSC/(mW/mg),Mass/%,Gas Flow(purge2)/(ml/min),Gas Flow(protective)/(ml/min),TIC(scan:1)/A,Sensit./(uV/mW),Segment
 40.64900,   0.00000,      0.91590,100,50.00000,50.00000,            ,0.92516,1
 70.87600,   6.04000,      2.45271, 97.61466,50.00000,50.00000,6.842971e-09,0.92535,1
101.275,   9.54000,      1.65529, 96.51968,50.00000,50.00000,6.828439e-09,0.92559,2
109.201,  12.56000,      0.41081, 94.62510,50.00000,50.00000,6.825641e-09,0.92580,2
108.367,  15.58000,     -0.22611, 93.20522,50.00000,50.00000,6.829058e-09,0.92602,2
110.125,  20.20000,      0.74578, 94.17068,50.00000,50.00000,6.830723e-09,0.92620,3
140.312,  26.24000,      1.97964, 96.19478,50.00000,50.00000,6.822114e-09,0.92565,3
174.496,  32.28000,      1.91236, 96.50161,50.00000,50.00000,6.834554e-09,0.92414,3
205.331,  38.32000,      1.85740, 96.74237,50.00000,50.00000,6.822015e-09,0.92288,3
235.37,  44.36000,      1.82256, 96.77871,50.00000,50.00000,6.821246e-09,0.92174,3
265.438,  50.40000,      1.76469, 96.53333,50.00000,50.00000,6.823380e-09,0.92085,3
295.525,  56.44000,      1.65868, 95.91084,50.00000,50.00000,6.818282e-09,0.92004,3
300.538,  70.70000,     -0.59103, 93.35281,50.00000,47.00000,6.819862e-09,0.91875,4
300.008,  85.80000,     -0.54843, 92.08514,50.00000,47.00000,6.805191e-09,0.91843,4
300.011, 100.9,     -0.55621, 91.18333,50.00000,47.00000,6.801636e-09,0.91871,4
300.014, 116,     -0.56283, 90.49036,50.00000,47.00000,6.796843e-09,0.91931,4
300.024, 131.1,     -0.56576, 89.92249,50.00000,47.00000,6.787568e-09,0.91756,4
300.023, 146.2,     -0.56712, 89.33414,50.00000,47.00000,6.813266e-09,0.91126,4
300.017, 161.3,     -0.56867, 88.79799,50.00000,47.00000,6.793615e-09,0.90164,4
300.016, 176.4,     -0.57159, 88.25502,50.00000,47.00000,6.787018e-09,0.89059,4
300.023, 191.5,     -0.57257, 87.73936,50.00000,47.00000,6.784276e-09,0.87881,4
300.026, 206.6,     -0.56985, 87.20542,50.00000,47.00000,6.777209e-09,0.86623,4
300.026, 221.7,     -0.57393, 86.70120,50.00000,47.00000,6.781881e-09,0.85274,4
300.011, 236.8,     -0.57528, 86.17871,50.00000,47.00000,6.777310e-09,0.83837,4
300.031, 251.9,     -0.57588, 85.63333,50.00000,47.00000,6.758573e-09,0.82322,4
300.009, 267,     -0.57703, 85.12671,50.00000,47.00000,6.760179e-09,0.80742,4
300.025, 282.1,     -0.57802, 84.57249,50.00000,47.00000,6.754266e-09,0.79119,4
300.022, 297.2,     -0.58171, 84.03173,50.00000,47.00000,6.760339e-09,0.78526,4
300.021, 312.3,     -0.58055, 83.52068,50.00000,47.00000,6.746515e-09,0.78696,4
300.016, 327.4,     -0.58152, 82.98233,50.00000,47.00000,6.737327e-09,0.78718,4
300.013, 342.5,     -0.58054, 82.43474,50.00000,47.00000,6.737719e-09,0.78720,4
300.03, 357.6,     -0.58289, 81.89418,50.00000,47.00000,6.723496e-09,0.78720,4
300.013, 372.7,     -0.58463, 81.36024,50.00000,47.00000,6.726620e-09,0.78719,4
300.023, 387.8,     -0.58736, 80.82871,50.00000,47.00000,6.707833e-09,0.78720,4
300.013, 402.9,     -0.58463, 80.25382,50.00000,47.00000,6.706198e-09,0.78719,4
300.003, 418,     -0.58462, 79.72912,50.00000,47.00000,6.703687e-09,0.78720,4
300.007, 433.1,     -0.58560, 79.19076,50.00000,47.00000,6.703245e-09,0.78719,4
300.01, 448.2,     -0.58677, 78.64317,50.00000,47.00000,6.711028e-09,0.78719,4
300.019, 463.3,     -0.58736, 78.09116,50.00000,47.00000,6.693810e-09,0.78719,4
300.016, 478.4,     -0.58872, 77.55281,50.00000,47.00000,6.688930e-09,0.78718,4
300.024, 493.5,     -0.59067, 77.01426,50.00000,47.00000,6.672157e-09,0.78720,4
300.002, 508.6,     -0.59182, 76.46687,50.00000,47.00000,6.680352e-09,0.78718,4
300.027, 523.7,     -0.59437, 75.90803,50.00000,47.00000,6.667369e-09,0.78719,4
300.015, 538.8,     -0.59553, 75.35141,50.00000,47.00000,6.664338e-09,0.78719,4
300.003, 553.9,     -0.59377, 74.84016,50.00000,47.00000,6.668353e-09,0.78721,4
300.016, 569,     -0.59747, 74.27008,50.00000,47.00000,6.653904e-09,0.78718,4
300.022, 584.1,     -0.59612, 73.71807,50.00000,47.00000,6.655297e-09,0.78719,4
300.01, 599.2,     -0.59825, 73.16365,50.00000,47.00000,6.640792e-09,0.78718,4
300.013, 614.3,     -0.59981, 72.63434,50.00000,47.00000,6.636470e-09,0.78718,4
300.018, 629.4,     -0.60039, 72.08012,50.00000,47.00000,6.644609e-09,0.78719,4
300.003, 644.5,     -0.60136, 71.52811,50.00000,47.00000,6.625331e-09,0.78720,4
300.012, 659.6,     -0.60273, 70.96687,50.00000,47.00000,6.626271e-09,0.78719,4
300.018, 674.7,     -0.60176, 70.40582,50.00000,47.00000,6.616449e-09,0.78719,4
300.016, 689.8,     -0.60331, 69.86285,50.00000,47.00000,6.632277e-09,0.78718,4
300.024, 704.9,     -0.60273, 69.31084,50.00000,47.00000,6.610170e-09,0.78719,4
300.024, 720,     -0.60488, 68.81104,50.00000,47.00000,6.630285e-09,0.78719,4
300.032, 735.1,     -0.60371, 68.25663,50.00000,46.00000,6.626983e-09,0.78720,4
300.019, 750.2,     -0.60117, 67.70000,50.00000,46.00000,6.626019e-09,0.78720,4
300.013, 765.3,     -0.60059, 67.15040,50.00000,46.00000,6.628532e-09,0.78721,4
300.004, 780.4,     -0.60097, 66.59378,50.00000,46.00000,6.619910e-09,0.78718,4
300.017, 795.5,     -0.60020, 66.02349,50.00000,46.00000,6.615057e-09,0.78720,4
300.019, 810.6,     -0.60546, 65.43976,50.00000,46.00000,6.576319e-09,0.78719,4
300.007, 825.7,     -0.60389, 64.90582,50.00000,47.00000,6.584912e-09,0.78719,4
300.01, 840.8,     -0.60370, 64.40382,50.00000,46.00000,6.580241e-09,0.78720,4
300.015, 855.9,     -0.60506, 63.91084,50.00000,46.00000,6.597771e-09,0.78720,4
300.005, 871,     -0.60350, 63.31787,50.00000,46.00000,6.617866e-09,0.78720,4
300.026, 886.1,     -0.60507, 62.79317,50.00000,46.00000,6.611848e-09,0.78718,4
300.02, 901.2,     -0.60293, 62.26365,50.00000,46.00000,6.623906e-09,0.78720,4
300.023, 916.3,     -0.60449, 61.71847,50.00000,46.00000,6.623046e-09,0.78719,4
300.008, 931.4,     -0.60739, 61.18233,50.00000,46.00000,6.624232e-09,0.78719,4
300.021, 946.5,     -0.60546, 60.61225,50.00000,46.00000,6.648587e-09,0.78719,4
300.009, 961.6,     -0.60311, 60.04418,50.00000,46.00000,6.660947e-09,0.78719,4
300.017, 976.7,     -0.60487, 59.44679,50.00000,46.00000,6.658625e-09,0.78719,4
300.026, 991.8,     -0.60235, 58.86064,50.00000,46.00000,6.644560e-09,0.78718,4
300.015,1006.9,     -0.60195, 58.26084,50.00000,46.00000,6.643010e-09,0.78720,4
300.016,1022,     -0.60000, 57.70201,50.00000,46.00000,6.649738e-09,0.78718,4
300.023,1037.1,     -0.60001, 57.13855,50.00000,46.00000,6.657565e-09,0.78720,4
300.03,1052.2,     -0.60391, 56.58213,50.00000,46.00000,6.630816e-09,0.78720,4
300.013,1067.3,     -0.60156, 56.04598,50.00000,46.00000,6.641160e-09,0.78719,4
300.008,1082.4,     -0.60603, 55.49157,50.00000,47.00000,6.641732e-09,0.78719,4
300.013,1097.5,     -0.60175, 54.93514,50.00000,47.00000,6.652008e-09,0.78719,4
300.012,1112.6,     -0.60175, 54.41024,50.00000,47.00000,6.650819e-09,0.78718,4
300.014,1127.7,     -0.60409, 53.87631,50.00000,47.00000,6.647314e-09,0.78720,4
300.027,1142.8,     -0.60507, 53.34940,50.00000,47.00000,6.645317e-09,0.78719,4
300.027,1157.9,     -0.60663, 52.81084,50.00000,47.00000,6.646244e-09,0.78720,4
300.024,1173,     -0.60546, 52.32028,50.00000,47.00000,6.644220e-09,0.78718,4
300.009,1188.1,     -0.60642, 51.79538,50.00000,47.00000,6.661324e-09,0.78719,4
300.016,1203.2,     -0.60935, 51.28434,50.00000,47.00000,6.641804e-09,0.78719,4
300.022,1218.3,     -0.60546, 50.78454,50.00000,48.00000,6.650576e-09,0.78719,4
300.018,1233.4,     -0.60643, 50.26647,50.00000,48.00000,6.621479e-09,0.78719,4
300.025,1248.5,     -0.61071, 49.75321,50.00000,48.00000,6.628035e-09,0.78719,4
300.313,1257.33,     -0.44174, 49.55542,50.00000,50.00000,6.622005e-09,0.78718,5
307.968,1258.09,      3.14084, 51.00040,50.00000,50.00000,6.628008e-09,0.78719,5
321.486,1258.84,      5.95678, 51.57731,50.00000,50.00000,6.625716e-09,0.78718,5
334.217,1259.6,      6.14285, 51.68635,50.00000,50.00000,6.628663e-09,0.78719,5
348.672,1260.35,      7.10932, 51.98173,50.00000,50.00000,6.624845e-09,0.78720,5
364.932,1261.11,      8.04370, 51.96807,50.00000,50.00000,6.618436e-09,0.78717,5
381.277,1261.86,      8.30566, 51.13213,50.00000,50.00000,6.629246e-09,0.78718,5
397.792,1262.62,      8.64573, 48.49920,50.00000,50.00000,6.621870e-09,0.78718,5
414.37,1263.37,      8.97985, 42.34719,50.00000,50.00000,6.633888e-09,0.78718,5
430.756,1264.12,      9.92450, 29.61627,50.00000,50.00000,6.634493e-09,0.78719,5
446.939,1264.88,     10.15067, 12.38494,50.00000,50.00000,6.622229e-09,0.78719,5
462.985,1265.63,      8.68687,  2.45281,50.00000,50.00000,6.633738e-09,0.78718,5
478.886,1266.39,      7.55551,  0.36506,50.00000,50.00000,6.629268e-09,0.78718,5
494.594,1267.14,      7.01565,  0.25602,50.00000,50.00000,6.634455e-09,0.78719,5
510.139,1267.9,      6.67967,  0.38534,50.00000,50.00000,6.617856e-09,0.78719,5
525.594,1268.65,      6.36653,  0.53755,50.00000,50.00000,6.632967e-09,0.78719,5
540.958,1269.41,      6.06889,  0.69438,50.00000,50.00000,6.624282e-09,0.78718,5
556.27,1270.16,      5.78530,  0.83514,50.00000,50.00000,6.629857e-09,0.78719,5
571.557,1270.92,      5.49136,  0.96707,50.00000,50.00000,6.626066e-09,0.78718,5
586.84,1271.67,      5.21834,  1.08293,50.00000,50.00000,6.618560e-09,0.78719,5
602.101,1272.43,      4.92755,  1.19197,50.00000,50.00000,6.616462e-09,0.78719,5
617.331,1273.18,      4.62993,  1.32811,50.00000,50.00000,6.634382e-09,0.78718,5
632.553,1273.94,      4.33382,  1.44398,50.00000,50.00000,6.610301e-09,0.78718,5
647.801,1274.69,      4.03312,  1.57590,50.00000,50.00000,6.616285e-09,0.78719,5
662.953,1275.45,      3.67994,  1.68715,50.00000,50.00000,6.624823e-09,0.78719,5
678.14,1276.2,      3.33469,  1.82570,50.00000,50.00000,6.614354e-09,0.78719,5
693.358,1276.96,      2.94312,  1.91426,50.00000,50.00000,6.627976e-09,0.78719,5
708.567,1277.71,      2.49371,  2.06647,50.00000,50.00000,6.619314e-09,0.78720,5
723.78,1278.47,      2.00156,  2.16647,50.00000,50.00000,6.617670e-09,0.78719,5
739.003,1279.22,      1.44179,  2.29819,50.00000,50.00000,6.621933e-09,0.78720,5
754.216,1279.98,      0.80264,  2.41406,50.00000,50.00000,6.616557e-09,0.78719,5
769.42,1280.73,      0.10655,  2.54357,50.00000,50.00000,6.638383e-09,0.78721,5
784.633,1281.49,     -0.60695,  2.64137,50.00000,50.00000,6.626274e-09,0.78720,5
794.91,1282,     -1.10275,  2.73675,50.00000,50.00000,            ,0.44693,5