File: data/TGA/commercial_samples/ExpDat_2025_08_15_SL_PS_Container_Isothermal.csv
#EXPORTTYPE:                 ,DATA ALL
#FILE:                       ,2025_08_15_SL_PS_Container_Isothermal.ngb-ss5
#FORMAT:                     ,NETZSCH5
#FTYPE:                      ,ASCII
#IDENTITY:                   ,PS-Container
#DECIMAL:                    ,POINT
#SEPARATOR:                  ,COMMA
#MTYPE:                      ,TG
#INSTRUMENT:                 ,NETZSCH STA 449F5
#PROJECT:                    ,
#DATE/TIME:                  ,8/15/2025 9:51:52 AM (UTC-4)
#CORR. FILE:                 ,
#TEMPCAL:                    ,05-05-2025 14:38
#SENSITIVITY:                ,28-06-2023 13:53
#LABORATORY:                 ,Tran/AAG
#OPERATOR:                   ,Stanley
#REMARK:                     ,2025_03_29_SL_005d_M1_isothermal
#SAMPLE:                     ,PS-Container
#SAMPLE MASS /mg:            ,4.91
#MATERIAL:                   ,Polystyrene
#REFERENCE:                  ,
#REFERENCE MASS /mg:         ,0
#TYPE OF CRUCIBLE:           ,Al2O3 85 ‘l, open
#SAMPLE CRUCIBLE MASS /mg:   ,0
#REFERENCE CRUCIBLE MASS /mg:,0
#DSC RANGE /‘V:              ,5000
#TG RANGE /mg:               ,35000
#TAU-R:                      ,---
#CORR. CODE:                 ,000
#EXO:                        ,-1
#RANGE:                      ,30›C....800›C/0.0....20.0K/min
#SEGMENT:                    ,S1-5/5
#SEG. 1:                     ,30›C/10.0(K/min)/100›C
#SEG. 2:                     ,100›C/00:10/100›C
#SEG. 3:                     ,100›C/5.0(K/min)/300›C
#SEG. 4:                     ,300›C/20:00/300›C
#SEG. 5:                     ,300›C/20.0(K/min)/800›C

##Temp./›C,Time/min,Mass/%,Sensit./(uV/mW),Segment
 25.63600,   0.00000,    100,0.92268,1
 41.55800,   3.04000,     92.38024,0.92526,1
 70.68000,   6.08000,     94.80407,0.92576,1
 93.21300,   8.05917,     94.73951,0.92257,2
102.587,   9.57917,     93.16130,0.92037,2
107.907,  11.09917,     92.17963,0.91890,2
109.875,  12.61917,     91.11752,0.91832,2
109.703,  14.13917,     90.28574,0.91837,2
108.393,  15.65917,     89.43075,0.91876,2
106.421,  17.35917,     88.94705,0.91933,3
110.711,  20.39917,     90.38473,0.91806,3
124.302,  23.43917,     91.61283,0.91340,3
141.871,  26.47917,     92.19572,0.90596,3
159.559,  29.51917,     92.38941,0.89696,3
176.061,  32.55917,     92.54134,0.88731,3
191.731,  35.59917,     92.66354,0.87712,3
207.007,  38.63917,     92.80183,0.86631,3
222.126,  41.67917,     92.91242,0.85486,3
237.234,  44.71917,     93.05295,0.84275,3
252.364,  47.75917,     93.17047,0.83004,3
267.522,  50.79917,     93.19124,0.81682,3
282.669,  53.83917,     93.10143,0.80319,3
297.794,  56.87917,     92.79715,0.78926,3
302.159,  64.29917,     90.83401,0.78519,4
300.386,  71.89917,     89.56680,0.78685,4
300.055,  79.49917,     88.67271,0.78715,4
300.01,  87.09917,     87.91466,0.78720,4
300.001,  94.69917,     87.35255,0.78721,4
300.018, 102.299,     86.83401,0.78719,4
300.018, 109.899,     86.39389,0.78719,4
300.018, 117.499,     86.00448,0.78719,4
300.01, 125.099,     85.66578,0.78720,4
300.02, 132.699,     85.35479,0.78719,4
300.015, 140.299,     85.06904,0.78719,4
300.018, 147.899,     84.76253,0.78719,4
300.018, 155.499,     84.53910,0.78719,4
300.009, 163.099,     84.27189,0.78720,4
300.025, 170.699,     84.00916,0.78718,4
300.003, 178.299,     83.79491,0.78720,4
300.003, 185.899,     83.53218,0.78720,4
300.012, 193.499,     83.27882,0.78719,4
300.005, 201.099,     83.14501,0.78720,4
300.02, 208.699,     82.97923,0.78719,4
300.011, 216.299,     82.76497,0.78720,4
300.011, 223.899,     82.58289,0.78720,4
300.015, 231.499,     82.28106,0.78719,4
300.007, 239.099,     81.99756,0.78720,4
300.018, 246.699,     81.76721,0.78719,4
300.013, 254.299,     81.57597,0.78719,4
300.011, 261.899,     81.40081,0.78720,4
300.029, 269.499,     81.23951,0.78718,4
300.03, 277.099,     81.04379,0.78718,4
300.011, 284.699,     80.83177,0.78720,4
300.011, 292.299,     80.75560,0.78720,4
300.017, 299.899,     80.65193,0.78719,4
300.006, 307.499,     80.50224,0.78720,4
300.011, 315.099,     80.29715,0.78720,4
300.008, 322.699,     80.09674,0.78720,4
300.019, 330.299,     79.91466,0.78719,4
300.003, 337.899,     79.71202,0.78720,4
300.012, 345.499,     79.50916,0.78719,4
300.025, 353.099,     79.31324,0.78718,4
300.009, 360.699,     79.15438,0.78720,4
300.005, 368.299,     78.94460,0.78720,4
300.017, 375.899,     78.80631,0.78719,4
300.011, 383.499,     78.62668,0.78720,4
300.007, 391.099,     78.48147,0.78720,4
300.021, 398.699,     78.31792,0.78719,4
300.003, 406.299,     78.15438,0.78720,4
300.022, 413.899,     77.99756,0.78719,4
300, 421.499,     77.82485,0.78721,4
300.017, 429.099,     77.66354,0.78719,4
300.018, 436.699,     77.50224,0.78719,4
300.027, 444.299,     77.31568,0.78718,4
300.016, 451.899,     77.17495,0.78719,4
300.007, 459.499,     77.03686,0.78720,4
300.006, 467.099,     76.86864,0.78720,4
300.024, 474.699,     76.69572,0.78718,4
300.025, 482.299,     76.54134,0.78718,4
300.032, 489.899,     76.38248,0.78718,4
300.03, 497.499,     76.25336,0.78718,4
300.012, 505.099,     76.10122,0.78719,4
300.025, 512.699,     75.94929,0.78718,4
300.01, 520.299,     75.82485,0.78720,4
300.004, 527.899,     75.66130,0.78720,4
300.01, 535.499,     75.50224,0.78720,4
300.005, 543.099,     75.35947,0.78720,4
300.026, 550.699,     75.23727,0.78718,4
300.023, 558.299,     75.11752,0.78718,4
300.015, 565.899,     74.94460,0.78719,4
300.011, 573.499,     74.79715,0.78720,4
300.023, 581.099,     74.65438,0.78718,4
300.007, 588.699,     74.53686,0.78720,4
300.026, 596.299,     74.38004,0.78718,4
300.012, 603.899,     74.22811,0.78719,4
300.027, 611.499,     74.08065,0.78718,4
300.01, 619.099,     73.94236,0.78720,4
300.011, 626.699,     73.79715,0.78720,4
300.009, 634.299,     73.66354,0.78720,4
300.013, 641.899,     73.51609,0.78719,4
300.019, 649.499,     73.38697,0.78719,4
300.009, 657.099,     73.24644,0.78720,4
300.025, 664.699,     73.09430,0.78718,4
300.014, 672.299,     72.96314,0.78719,4
300.007, 679.899,     72.81568,0.78720,4
300.011, 687.499,     72.67271,0.78720,4
300.005, 695.099,     72.54134,0.78720,4
300.011, 702.699,     72.38697,0.78720,4
300.012, 710.299,     72.24196,0.78719,4
300.012, 717.899,     72.13585,0.78719,4
300.019, 725.499,     72.00000,0.78719,4
300.022, 733.099,     71.86171,0.78719,4
300.022, 740.699,     71.74196,0.78719,4
300.002, 748.299,     71.57373,0.78720,4
300.02, 755.899,     71.46069,0.78719,4
300.013, 763.499,     71.32240,0.78719,4
300.019, 771.099,     71.17963,0.78719,4
300.019, 778.699,     71.03442,0.78719,4
300.016, 786.299,     70.90305,0.78719,4
300.017, 793.899,     70.73727,0.78719,4
300.013, 801.499,     70.63360,0.78719,4
300.013, 809.099,     70.46069,0.78719,4
300.012, 816.699,     70.37556,0.78719,4
300.022, 824.299,     70.20489,0.78719,4
300.026, 831.899,     70.06904,0.78718,4
300.017, 839.499,     69.96314,0.78719,4
300.01, 847.099,     69.81792,0.78720,4
300.018, 854.699,     69.65193,0.78719,4
300.013, 862.299,     69.50224,0.78719,4
300.01, 869.899,     69.38697,0.78720,4
300.021, 877.499,     69.20733,0.78719,4
300.02, 885.099,     69.08289,0.78719,4
300.018, 892.699,     68.92383,0.78719,4
300.017, 900.299,     68.77189,0.78719,4
300.018, 907.899,     68.64501,0.78719,4
300.009, 915.499,     68.51609,0.78720,4
300.012, 923.099,     68.36619,0.78719,4
300.021, 930.699,     68.24175,0.78719,4
300.022, 938.299,     68.09430,0.78719,4
300.021, 945.899,     67.96986,0.78719,4
300.023, 953.499,     67.82485,0.78718,4
300.021, 961.099,     67.66110,0.78719,4
300.021, 968.699,     67.52301,0.78719,4
300.014, 976.299,     67.33625,0.78719,4
300.022, 983.899,     67.17739,0.78719,4
300.013, 991.499,     67.05295,0.78719,4
300.023, 999.099,     66.90081,0.78718,4
300.013,1006.7,     66.78798,0.78719,4
300.017,1014.3,     66.62200,0.78719,4
300.01,1021.9,     66.48371,0.78720,4
300.016,1029.5,     66.33870,0.78719,4
300.016,1037.1,     66.20041,0.78719,4
300.021,1044.7,     66.04134,0.78719,4
300.024,1052.3,     65.89613,0.78718,4
300.019,1059.9,     65.75560,0.78719,4
300.014,1067.5,     65.59206,0.78719,4
300.014,1075.1,     65.45377,0.78719,4
300.014,1082.7,     65.32016,0.78719,4
300.008,1090.3,     65.16802,0.78720,4
300.018,1097.9,     65.04358,0.78719,4
300.013,1105.5,     64.89165,0.78719,4
300.013,1113.1,     64.74644,0.78719,4
300.023,1120.7,     64.58289,0.78718,4
300.023,1128.3,     64.47923,0.78718,4
300.01,1135.9,     64.30631,0.78720,4
300.012,1143.5,     64.19572,0.78719,4
300.021,1151.1,     64.05743,0.78719,4
300.02,1158.7,     63.90550,0.78719,4
300.026,1166.3,     63.78330,0.78718,4
300.027,1173.9,     63.61059,0.78718,4
299.999,1181.5,     63.47678,0.78721,4
300.025,1189.1,     63.32485,0.78718,4
300.014,1196.7,     63.20733,0.78719,4
300.01,1204.3,     63.04358,0.78720,4
300.01,1211.9,     62.92607,0.78720,4
300.01,1219.5,     62.77413,0.78720,4
300.02,1227.1,     62.63809,0.78719,4
300.024,1234.7,     62.46986,0.78718,4
300.017,1242.3,     62.31792,0.78719,4
300.012,1249.9,     62.20041,0.78719,4
300.018,1257.02,     62.05743,0.78719,5
300.645,1257.4,     62.25336,0.78660,5
303.891,1257.78,     63.02994,0.78357,5
309.717,1258.16,     63.73035,0.77810,5
316.619,1258.54,     64.12424,0.77159,5
323.354,1258.92,     64.23951,0.76521,5
329.708,1259.3,     64.29491,0.75917,5
336.225,1259.68,     64.40550,0.75296,5
343.362,1260.06,     64.55988,0.74615,5
351.145,1260.44,     64.71874,0.73872,5
359.3,1260.82,     64.77413,0.73094,5
367.532,1261.2,     64.69124,0.72311,5
375.758,1261.58,     64.42383,0.71530,5
383.985,1261.96,     63.85479,0.70754,5
392.257,1262.34,     62.71874,0.69978,5
400.576,1262.72,     60.67271,0.69203,5
408.899,1263.1,     57.29715,0.68434,5
417.178,1263.48,     51.79470,0.67677,5
425.412,1263.86,     42.94216,0.66932,5
433.574,1264.24,     30.54582,0.66202,5
441.704,1264.62,     16.22566,0.65484,5
449.764,1265,      4.62424,0.64782,5
457.797,1265.38,     -1.40346,0.64092,5
465.832,1265.76,     -3.39430,0.63412,5
473.853,1266.14,     -3.98411,0.62744,5
481.793,1266.52,     -4.17312,0.62094,5
489.684,1266.9,     -4.18004,0.61459,5
497.541,1267.28,     -4.14542,0.60838,5
505.361,1267.66,     -4.11772,0.60231,5
513.144,1268.04,     -4.00489,0.59639,5
520.905,1268.42,     -3.92200,0.59059,5
528.638,1268.8,     -3.81813,0.58493,5
536.351,1269.18,     -3.75601,0.57941,5
544.066,1269.56,     -3.67312,0.57399,5
551.764,1269.94,     -3.60387,0.56870,5
559.433,1270.32,     -3.50713,0.56355,5
567.093,1270.7,     -3.42424,0.55851,5
574.757,1271.08,     -3.32749,0.55358,5
582.443,1271.46,     -3.26986,0.54875,5
590.112,1271.84,     -3.21446,0.54403,5
597.772,1272.22,     -3.13157,0.53943,5
605.44,1272.6,     -3.05560,0.53492,5
613.093,1272.98,     -2.99328,0.53053,5
620.746,1273.36,     -2.91039,0.52623,5
628.398,1273.74,     -2.82749,0.52203,5
636.033,1274.12,     -2.75825,0.51793,5
643.685,1274.5,     -2.69613,0.51391,5
651.335,1274.88,     -2.64766,0.50997,5
658.985,1275.26,     -2.57862,0.50612,5
666.612,1275.64,     -2.51874,0.50236,5
674.225,1276.02,     -2.46334,0.49868,5
681.869,1276.4,     -2.38045,0.49505,5
689.521,1276.78,     -2.32505,0.49149,5
697.172,1277.16,     -2.24216,0.48799,5
704.827,1277.54,     -2.18697,0.48454,5
712.488,1277.92,     -2.12933,0.48115,5
720.152,1278.3,     -2.06008,0.47780,5
727.806,1278.68,     -2.01874,0.47451,5
735.457,1279.06,     -1.93564,0.47126,5
743.123,1279.44,     -1.88045,0.46804,5
750.794,1279.82,     -1.79756,0.46485,5
758.451,1280.2,     -1.75601,0.46169,5
766.115,1280.58,     -1.63625,0.45856,5
773.753,1280.96,     -1.60855,0.45545,5
781.417,1281.34,     -1.52566,0.45235,5
789.072,1281.72,     -1.49796,0.44927,5
794.609,1282,     -1.43340,0.44705,5