File: data/TGA/commercial_samples/ExpDat_2025_09_07_SL_PS_Red_Solo_Cup_SCF3_P5EER3_V1_2_dynamic.csv
#EXPORTTYPE:                 ,DATA ALL
#FILE:                       ,2025_09_07_SL_PS_Red_Solo_Cup_SCF3_P5EER3_V1_2_Dynamic.ngb-ss5
#FORMAT:                     ,NETZSCH5
#FTYPE:                      ,ASCII
#IDENTITY:                   ,250821-P5EER3-V1+2
#DECIMAL:                    ,POINT
#SEPARATOR:                  ,COMMA
#MTYPE:                      ,DSC
#INSTRUMENT:                 ,NETZSCH STA 449F5
#PROJECT:                    ,PS-SCF3
#DATE/TIME:                  ,9/7/2025 2:06:17 PM (UTC-4)
#CORR. FILE:                 ,
#TEMPCAL:                    ,05-05-2025 14:38
#SENSITIVITY:                ,28-06-2023 13:53
#LABORATORY:                 ,Tran
#OPERATOR:                   ,Stanley
#REMARK:                     ,2025_03_20_Styrofoam_dynamic
#SAMPLE:                     ,250821-P5EER3-V1+2
#SAMPLE MASS /mg:            ,4.84
#MATERIAL:                   ,Polystyrene
#REFERENCE:                  ,
#REFERENCE MASS /mg:         ,0
#TYPE OF CRUCIBLE:           ,Al2O3 85 ‘l, open
#SAMPLE CRUCIBLE MASS /mg:   ,0
#REFERENCE CRUCIBLE MASS /mg:,0
#DSC RANGE /‘V:              ,5000
#TG RANGE /mg:               ,35000
#TAU-R:                      ,---
#CORR. CODE:                 ,000
#EXO:                        ,-1
#RANGE:                      ,20›C....800›C/0.0....20.0K/min
#SEGMENT:                    ,S1-4/4
#SEG. 1:                     ,20›C/5.0(K/min)/100›C
#SEG. 2:                     ,100›C/00:05/100›C
#SEG. 3:                     ,100›C/1.0(K/min)/400›C
#SEG. 4:                     ,400›C/20.0(K/min)/800›C

##Temp./›C,Time/min,DSC/(mW/mg),Mass/%,Gas Flow(purge2)/(ml/min),Gas Flow(protective)/(ml/min),TIC(scan:1)/A,Sensit./(uV/mW),Segment
 30.33600,  0.00000,      1.28582,    100,50.00000,37.00000,            ,0.92362,1
 39.45100,  5.00000,      0.14843,     89.55847,50.00000,33.00000,7.225091e-09,0.92465,1
 58.12100, 10.00000,      1.12446,     91.92872,50.00000,34.00000,7.229688e-09,0.92491,1
 89.33900, 15.00000,      1.47708,     92.92211,50.00000,34.00000,7.256342e-09,0.92520,1
106.228, 19.00000,      0.52962,     91.17376,50.00000,34.00000,7.244578e-09,0.92568,2
107.558, 23.33333,-3.053152e-02,     89.41591,50.00000,34.00000,7.259877e-09,0.92612,3
107.859, 28.33333, 9.366175e-02,     88.90640,50.00000,34.00000,7.232296e-09,0.92607,3
111.489, 33.33333,      0.23907,     88.82686,50.00000,34.00000,7.238165e-09,0.92511,3
116.59, 38.33333,      0.28148,     88.71467,50.00000,34.00000,7.246903e-09,0.92318,3
121.829, 43.33333,      0.28067,     88.60021,50.00000,34.00000,7.261580e-09,0.92104,3
126.907, 48.33333,      0.27902,     88.52996,50.00000,34.00000,7.251168e-09,0.91977,3
131.92, 53.33333,      0.27999,     88.49504,50.00000,34.00000,7.241117e-09,0.91908,3
136.91, 58.33333,      0.28256,     88.52293,50.00000,34.00000,7.239184e-09,0.91892,3
141.925, 63.33333,      0.28292,     88.54876,50.00000,34.00000,7.241703e-09,0.91900,3
146.935, 68.33333,      0.28315,     88.59070,50.00000,34.00000,7.258133e-09,0.91908,3
151.949, 73.33333,      0.27957,     88.64690,50.00000,34.00000,7.255782e-09,0.91903,3
156.953, 78.33333,      0.27653,     88.70289,50.00000,34.00000,7.249149e-09,0.91879,3
161.956, 83.33333,      0.27087,     88.76612,50.00000,34.00000,7.225612e-09,0.91840,3
166.962, 88.33333,      0.26361,     88.78017,50.00000,34.00000,7.251755e-09,0.91788,3
171.953, 93.33333,      0.25563,     88.83161,50.00000,34.00000,7.242651e-09,0.91727,3
176.936, 98.33333,      0.24478,     88.87128,50.00000,34.00000,7.225398e-09,0.91659,3
181.94,103.333,      0.23406,     88.87128,50.00000,34.00000,7.236066e-09,0.91591,3
186.948,108.333,      0.22347,     88.90640,50.00000,34.00000,7.248426e-09,0.91517,3
191.951,113.333,      0.21048,     88.79421,50.00000,34.00000,7.242913e-09,0.91445,3
196.953,118.333,      0.19580,     88.72872,50.00000,34.00000,7.240313e-09,0.91369,3
201.945,123.333,      0.18173,     88.63760,50.00000,34.00000,7.238292e-09,0.91292,3
206.941,128.333,      0.16721,     88.49731,50.00000,34.00000,7.248864e-09,0.91215,3
211.946,133.333,      0.15221,     88.32893,50.00000,34.00000,7.217577e-09,0.91135,3
216.946,138.333,      0.13416,     88.15372,50.00000,34.00000,7.230691e-09,0.91056,3
221.956,143.333,      0.12223,     87.95496,50.00000,34.00000,7.234149e-09,0.90972,3
226.94,148.333,      0.10428,     87.70021,50.00000,34.00000,7.232112e-09,0.90885,3
231.933,153.333, 8.262423e-02,     87.43140,50.00000,34.00000,7.232667e-09,0.90801,3
236.928,158.333, 5.497466e-02,     87.18822,50.00000,34.00000,7.221734e-09,0.90710,3
241.932,163.333, 3.250865e-02,     86.87045,50.00000,34.00000,7.223627e-09,0.90621,3
246.944,168.333, 5.288032e-03,     86.52438,50.00000,34.00000,7.224811e-09,0.90527,3
251.928,173.333,-2.239907e-02,     86.19483,50.00000,34.00000,7.237347e-09,0.90435,3
256.931,178.333,-5.151954e-02,     85.77417,50.00000,34.00000,7.228044e-09,0.90337,3
261.939,183.333,-8.229375e-02,     85.40248,50.00000,34.00000,7.224310e-09,0.90237,3
266.941,188.333,     -0.11533,     84.92087,50.00000,34.00000,7.213381e-09,0.90139,3
271.92,193.333,     -0.15242,     84.45103,50.00000,34.00000,7.215723e-09,0.90035,3
276.936,198.333,     -0.18154,     83.93450,50.00000,34.00000,7.213316e-09,0.89934,3
281.929,203.333,     -0.21609,     83.37831,50.00000,34.00000,7.213292e-09,0.89827,3
286.922,208.333,     -0.25164,     82.77748,50.00000,34.00000,7.214165e-09,0.89723,3
291.918,213.333,     -0.28940,     82.20475,50.00000,34.00000,7.209074e-09,0.89612,3
296.909,218.333,     -0.32840,     81.58760,50.00000,34.00000,7.214208e-09,0.89499,3
301.916,223.333,     -0.36929,     80.96364,50.00000,34.00000,7.204478e-09,0.89390,3
306.905,228.333,     -0.41046,     80.33244,50.00000,34.00000,7.205142e-09,0.89274,3
311.933,233.333,     -0.45074,     79.65702,50.00000,34.00000,7.201401e-09,0.89160,3
316.936,238.333,     -0.49295,     79.01178,50.00000,34.00000,7.185114e-09,0.89042,3
321.932,243.333,     -0.53897,     78.30826,50.00000,34.00000,7.193658e-09,0.88925,3
326.926,248.333,     -0.57936,     77.64442,50.00000,34.00000,7.190370e-09,0.88804,3
331.927,253.333,     -0.62153,     76.86591,50.00000,34.00000,7.176841e-09,0.88685,3
336.938,258.333,     -0.66256,     76.11343,50.00000,34.00000,7.187150e-09,0.88559,3
341.937,263.333,     -0.70454,     75.16426,50.00000,34.00000,7.193865e-09,0.88437,3
346.917,268.333,     -0.74810,     74.05868,50.00000,34.00000,7.200131e-09,0.88308,3
351.914,273.333,     -0.78967,     72.63512,50.00000,34.00000,7.181852e-09,0.88178,3
356.91,278.333,     -0.83587,     70.69979,50.00000,34.00000,7.175406e-09,0.88050,3
361.92,283.333,     -0.87575,     67.89711,50.00000,34.00000,7.195065e-09,0.87918,3
366.909,288.333,     -0.90306,     63.78306,50.00000,34.00000,7.178133e-09,0.87787,3
371.911,293.333,     -0.92744,     57.67541,50.00000,34.00000,7.163104e-09,0.87651,3
376.921,298.333,     -0.95391,     48.83740,50.00000,34.00000,7.172037e-09,0.87513,3
381.912,303.333,     -1.00712,     37.68285,50.00000,34.00000,7.168146e-09,0.87379,3
386.919,308.333,     -1.12211,     25.22417,50.00000,34.00000,7.153561e-09,0.87244,3
391.926,313.333,     -1.31764,     13.87810,50.00000,34.00000,7.160443e-09,0.87103,3
396.921,318.333,     -1.53161,      5.88140,50.00000,34.00000,7.164454e-09,0.86960,3
399.843,321.175,     -1.60975,      2.84752,50.00000,34.00000,7.163551e-09,0.86884,4
402.202,321.55,     -0.46546,      2.87541,50.00000,34.00000,7.162069e-09,0.86874,4
408.012,321.925,      1.95832,      3.11632,50.00000,34.00000,7.161900e-09,0.86859,4
415.559,322.3,      3.82177,      3.06012,50.00000,34.00000,7.164071e-09,0.86849,4
422.776,322.675,      4.24578,      2.57397,50.00000,34.00000,7.147490e-09,0.86839,4
429.14,323.05,      3.86757,      1.89835,50.00000,34.00000,7.153536e-09,0.86830,4
435.399,323.425,      3.64005,      1.21591,50.00000,34.00000,7.178925e-09,0.86815,4
442.225,323.8,      3.87321,      0.50992,50.00000,34.00000,7.162630e-09,0.86806,4
449.706,324.175,      4.28833,     -0.25682,50.00000,34.00000,7.157381e-09,0.86796,4
457.497,324.55,      4.53396,     -0.99298,50.00000,34.00000,7.156665e-09,0.86786,4
465.3,324.925,      4.52453,     -1.72934,50.00000,34.00000,7.149805e-09,0.86771,4
473.058,325.3,      4.39395,     -2.32066,50.00000,34.00000,7.152375e-09,0.86761,4
480.826,325.675,      4.27241,     -2.73678,50.00000,34.00000,7.153107e-09,0.86752,4
488.696,326.05,      4.19019,     -2.97521,50.00000,34.00000,7.151814e-09,0.86743,4
496.624,326.425,      4.10607,     -3.03140,50.00000,34.00000,7.168822e-09,0.86729,4
504.541,326.8,      3.98851,     -3.03140,50.00000,34.00000,7.155776e-09,0.86718,4
512.425,327.175,      3.84806,     -3.00331,50.00000,34.00000,7.149126e-09,0.86709,4
520.303,327.55,      3.70559,     -3.03140,50.00000,34.00000,7.153421e-09,0.86700,4
528.155,327.925,      3.56614,     -2.97521,50.00000,34.00000,7.165674e-09,0.86690,4
535.987,328.3,      3.41824,     -2.92603,50.00000,34.00000,7.169344e-09,0.86675,4
543.827,328.675,      3.26818,     -2.80227,50.00000,34.00000,7.162708e-09,0.86666,4
551.619,329.05,      3.11438,     -2.74607,50.00000,34.00000,7.161818e-09,0.86655,4
559.381,329.425,      2.96981,     -2.73202,50.00000,34.00000,7.159103e-09,0.86646,4
567.164,329.8,      2.82203,     -2.67603,50.00000,34.00000,7.154764e-09,0.86636,4
574.923,330.175,      2.67516,     -2.61281,50.00000,34.00000,7.156525e-09,0.86622,4
582.661,330.55,      2.52849,     -2.52645,50.00000,34.00000,7.166697e-09,0.86612,4
590.377,330.925,      2.37547,     -2.50062,50.00000,34.00000,7.169501e-09,0.86601,4
598.077,331.3,      2.23214,     -2.41653,50.00000,34.00000,7.158632e-09,0.86591,4
605.764,331.675,      2.09386,     -2.34649,50.00000,34.00000,7.159028e-09,0.86577,4
613.447,332.05,      1.96473,     -2.27624,50.00000,34.00000,7.149314e-09,0.86567,4
621.108,332.425,      1.83514,     -2.22025,50.00000,34.00000,7.153318e-09,0.86557,4
628.764,332.8,      1.71246,     -2.13368,50.00000,34.00000,7.155232e-09,0.86547,4
636.39,333.175,      1.58899,     -2.13368,50.00000,34.00000,7.164808e-09,0.86538,4
644.035,333.55,      1.47007,     -2.04959,50.00000,34.00000,7.150545e-09,0.86522,4
651.658,333.925,      1.34718,     -1.99339,50.00000,34.00000,7.160291e-09,0.86513,4
659.275,334.3,      1.22871,     -1.93740,50.00000,34.00000,7.160518e-09,0.86504,4
666.875,334.675,      1.11422,     -1.88120,50.00000,34.00000,7.151897e-09,0.86493,4
674.484,335.05,      0.99249,     -1.80888,50.00000,34.00000,7.164527e-09,0.86483,4
682.07,335.425,      0.86785,     -1.74566,50.00000,34.00000,7.142158e-09,0.86468,4
689.662,335.8,      0.73135,     -1.66860,50.00000,34.00000,7.145939e-09,0.86459,4
697.243,336.175,      0.60022,     -1.64050,50.00000,34.00000,7.162877e-09,0.86449,4
704.837,336.55,      0.46326,     -1.59132,50.00000,34.00000,7.143667e-09,0.86438,4
712.43,336.925,      0.31024,     -1.53533,50.00000,34.00000,7.157718e-09,0.86430,4
720.021,337.3,      0.13393,     -1.45124,50.00000,34.00000,7.145550e-09,0.86415,4
727.595,337.675,-5.081702e-02,     -1.39504,50.00000,34.00000,7.150863e-09,0.86404,4
735.166,338.05,     -0.24646,     -1.36467,50.00000,34.00000,7.166947e-09,0.86394,4
742.769,338.425,     -0.45419,     -1.30868,50.00000,34.00000,7.156570e-09,0.86385,4
750.369,338.8,     -0.69931,     -1.28058,50.00000,34.00000,7.153612e-09,0.86369,4
757.945,339.175,     -0.96511,     -1.20331,50.00000,34.00000,7.147339e-09,0.86359,4
765.533,339.55,     -1.24788,     -1.13326,50.00000,34.00000,7.158177e-09,0.86350,4
773.079,339.925,     -1.53749,     -1.07479,50.00000,34.00000,7.148562e-09,0.86340,4
780.638,340.3,     -1.83482,     -1.01880,50.00000,34.00000,7.161157e-09,0.86330,4
788.198,340.675,     -2.13648,     -0.99070,50.00000,34.00000,7.148474e-09,0.86315,4
794.742,341,     -2.39943,     -0.93450,50.00000,34.00000,            ,0.44699,4