File: data/TGA/commercial_samples/ExpDat_2025_07_23_SL_PS_Petri_Dish_Dynamic.csv
#EXPORTTYPE:                 ,DATA ALL
#FILE:                       ,2025_07_23_SL_PS_Petri_Dish_Dynamic.ngb-ss5
#FORMAT:                     ,NETZSCH5
#FTYPE:                      ,ASCII
#IDENTITY:                   ,PS-Petri-Dish
#DECIMAL:                    ,POINT
#SEPARATOR:                  ,COMMA
#MTYPE:                      ,DSC
#INSTRUMENT:                 ,NETZSCH STA 449F5
#PROJECT:                    ,
#DATE/TIME:                  ,7/23/2025 1:41:24 PM (UTC-4)
#CORR. FILE:                 ,
#TEMPCAL:                    ,05-05-2025 14:38
#SENSITIVITY:                ,28-06-2023 13:53
#LABORATORY:                 ,Tran/AAG
#OPERATOR:                   ,Stanley
#REMARK:                     ,2025_03_20_Styrofoam_dynamic
#SAMPLE:                     ,PS-Petri-Dish
#SAMPLE MASS /mg:            ,5.85
#MATERIAL:                   ,Polystyrene
#REFERENCE:                  ,
#REFERENCE MASS /mg:         ,0
#TYPE OF CRUCIBLE:           ,Al2O3 85 ‘l, open
#SAMPLE CRUCIBLE MASS /mg:   ,0
#REFERENCE CRUCIBLE MASS /mg:,0
#DSC RANGE /‘V:              ,5000
#TG RANGE /mg:               ,35000
#TAU-R:                      ,---
#CORR. CODE:                 ,000
#EXO:                        ,-1
#RANGE:                      ,20›C....800›C/0.0....20.0K/min
#SEGMENT:                    ,S1-4/4
#SEG. 1:                     ,20›C/5.0(K/min)/100›C
#SEG. 2:                     ,100›C/00:05/100›C
#SEG. 3:                     ,100›C/1.0(K/min)/400›C
#SEG. 4:                     ,400›C/20.0(K/min)/800›C

##Temp./›C,Time/min,DSC/(mW/mg),Mass/%,Gas Flow(purge2)/(ml/min),Gas Flow(protective)/(ml/min),TIC(scan:1)/A,Sensit./(uV/mW),Segment
 28.00700,  0.00000,      0.46662,    100,50.00000,38.00000,            ,0.92317,1
 37.41400,  5.06667,      0.31788,     93.67231,50.00000,32.00000,1.687283e-08,0.92387,1
 61.61700, 10.13333,      1.04933,     95.11299,50.00000,32.00000,1.695802e-08,0.92434,1
 92.36200, 15.20000,      1.26693,     95.55402,50.00000,32.00000,1.690749e-08,0.92512,1
106.851, 19.18333,      0.31426,     93.97402,50.00000,32.00000,1.690227e-08,0.92575,2
107.296, 23.66667,     -0.16858,     92.60667,50.00000,32.00000,1.689262e-08,0.92619,3
107.915, 28.73333, 1.774095e-02,     92.29726,50.00000,32.00000,1.687496e-08,0.92591,3
111.982, 33.80000,      0.16813,     92.23726,50.00000,32.00000,1.688501e-08,0.92471,3
117.273, 38.86667,      0.21201,     92.10974,50.00000,32.00000,1.685692e-08,0.92266,3
122.543, 43.93333,      0.22486,     92.06137,50.00000,32.00000,1.685408e-08,0.92061,3
127.683, 49.00000,      0.24079,     92.04581,50.00000,32.00000,1.685338e-08,0.91954,3
132.745, 54.06667,      0.26097,     92.09231,50.00000,32.00000,1.681480e-08,0.91900,3
137.82, 59.13333,      0.28402,     92.13863,50.00000,32.00000,1.678404e-08,0.91896,3
142.905, 64.20000,      0.30794,     92.24308,50.00000,32.00000,1.681656e-08,0.91907,3
147.97, 69.26667,      0.33521,     92.31846,50.00000,31.00000,1.678730e-08,0.91915,3
153.052, 74.33333,      0.36137,     92.43453,50.00000,31.00000,1.682160e-08,0.91905,3
158.127, 79.40000,      0.38657,     92.44427,50.00000,31.00000,1.682183e-08,0.91876,3
163.167, 84.46667,      0.41576,     92.62410,50.00000,31.00000,1.685310e-08,0.91832,3
168.236, 89.53333,      0.44373,     92.73436,50.00000,31.00000,1.681525e-08,0.91775,3
173.319, 94.60000,      0.47062,     92.85607,50.00000,31.00000,1.684442e-08,0.91711,3
178.39, 99.66667,      0.49952,     92.93744,50.00000,31.00000,1.685940e-08,0.91641,3
183.46,104.733,      0.53209,     93.03026,50.00000,31.00000,1.680092e-08,0.91570,3
188.522,109.8,      0.56303,     93.11521,50.00000,31.00000,1.684148e-08,0.91496,3
193.593,114.867,      0.59428,     93.15402,50.00000,30.00000,1.681882e-08,0.91421,3
198.654,119.933,      0.62748,     93.17726,50.00000,30.00000,1.679343e-08,0.91347,3
203.721,125,      0.65696,     93.20615,50.00000,30.00000,1.680754e-08,0.91269,3
208.777,130.067,      0.69037,     93.23709,50.00000,30.00000,1.681424e-08,0.91190,3
213.876,135.133,      0.72508,     93.25453,50.00000,30.00000,1.679054e-08,0.91109,3
218.937,140.2,      0.75983,     93.27009,50.00000,30.00000,1.676987e-08,0.91026,3
223.988,145.267,      0.79527,     93.26427,50.00000,30.00000,1.677263e-08,0.90942,3
229.06,150.333,      0.82913,     93.26427,50.00000,30.00000,1.677504e-08,0.90855,3
234.109,155.4,      0.86430,     93.24479,50.00000,30.00000,1.674136e-08,0.90767,3
239.188,160.467,      0.89866,     93.19658,50.00000,30.00000,1.675780e-08,0.90678,3
244.256,165.533,      0.93420,     93.16564,50.00000,30.00000,1.677232e-08,0.90585,3
249.31,170.6,      0.96624,     93.10752,50.00000,30.00000,1.673711e-08,0.90491,3
254.395,175.667,      1.00391,     93.05538,50.00000,30.00000,1.673576e-08,0.90394,3
259.443,180.733,      1.03773,     92.99932,50.00000,30.00000,1.673799e-08,0.90295,3
264.512,185.8,      1.07392,     92.91026,50.00000,30.00000,1.678269e-08,0.90195,3
269.581,190.867,      1.11008,     92.80000,50.00000,30.00000,1.678908e-08,0.90092,3
274.635,195.933,      1.14943,     92.69179,50.00000,30.00000,1.677311e-08,0.89988,3
279.698,201,      1.18492,     92.56410,50.00000,30.00000,1.675367e-08,0.89886,3
284.765,206.067,      1.21811,     92.40752,50.00000,30.00000,1.677165e-08,0.89778,3
289.832,211.133,      1.25517,     92.29145,50.00000,30.00000,1.675936e-08,0.89669,3
294.894,216.2,      1.28926,     92.11162,50.00000,30.00000,1.675243e-08,0.89558,3
299.961,221.267,      1.32713,     91.96650,50.00000,30.00000,1.675832e-08,0.89445,3
305.025,226.333,      1.36499,     91.73829,50.00000,30.00000,1.672169e-08,0.89331,3
310.091,231.4,      1.40603,     91.55470,50.00000,30.00000,1.679883e-08,0.89214,3
315.177,236.467,      1.44884,     91.26256,50.00000,30.00000,1.677602e-08,0.89096,3
320.237,241.533,      1.49149,     90.98410,50.00000,30.00000,1.677684e-08,0.88981,3
325.309,246.6,      1.53011,     90.52581,50.00000,30.00000,1.676633e-08,0.88858,3
330.371,251.667,      1.56922,     90.01128,50.00000,30.00000,1.677311e-08,0.88735,3
335.427,256.733,      1.61317,     89.27060,50.00000,30.00000,1.677289e-08,0.88611,3
340.501,261.8,      1.66974,     88.15487,50.00000,30.00000,1.678217e-08,0.88485,3
345.554,266.867,      1.71562,     86.70239,50.00000,30.00000,1.676258e-08,0.88362,3
350.628,271.933,      1.77768,     84.39521,50.00000,30.00000,1.677982e-08,0.88232,3
355.697,277,      1.88706,     80.71897,50.00000,30.00000,1.679299e-08,0.88101,3
360.762,282.067,      1.97356,     75.42581,50.00000,30.00000,1.678266e-08,0.87968,3
365.813,287.133,      2.09588,     67.38274,50.00000,30.00000,1.679379e-08,0.87834,3
370.881,292.2,      2.22348,     56.03060,50.00000,30.00000,1.679675e-08,0.87698,3
375.948,297.267,      2.39926,     40.59607,50.00000,30.00000,1.680559e-08,0.87560,3
381.014,302.333,      2.38274,     22.91624,50.00000,31.00000,1.678326e-08,0.87423,3
386.096,307.4,      2.14345,      7.80274,50.00000,31.00000,1.679013e-08,0.87289,3
391.162,312.467,      1.82486,     -0.52667,50.00000,31.00000,1.676693e-08,0.87147,3
396.235,317.533,      1.59671,     -3.35983,50.00000,31.00000,1.681032e-08,0.87004,3
399.772,321.058,      1.54687,     -4.03863,50.00000,31.00000,1.677782e-08,0.86904,4
401.973,321.438,      3.14593,     -3.79880,50.00000,31.00000,1.679656e-08,0.86893,4
407.745,321.818,      6.38399,     -3.38496,50.00000,31.00000,1.675621e-08,0.86880,4
415.376,322.198,      8.74684,     -3.11231,50.00000,31.00000,1.677113e-08,0.86871,4
422.642,322.578,      9.24619,     -3.10650,50.00000,31.00000,1.675843e-08,0.86860,4
429.107,322.958,      8.86672,     -3.15487,50.00000,31.00000,1.680317e-08,0.86851,4
435.486,323.338,      8.78757,     -3.15487,50.00000,31.00000,1.678305e-08,0.86841,4
442.439,323.718,      9.30947,     -3.10855,50.00000,31.00000,1.679019e-08,0.86827,4
450.025,324.098,     10.01683,     -3.01573,50.00000,31.00000,1.678529e-08,0.86817,4
457.873,324.478,     10.49947,     -2.94222,50.00000,31.00000,1.680412e-08,0.86807,4
465.757,324.858,     10.69834,     -2.87248,50.00000,31.00000,1.678926e-08,0.86799,4
473.597,325.238,     10.78035,     -2.82615,50.00000,31.00000,1.678708e-08,0.86784,4
481.46,325.618,     10.88669,     -2.74684,50.00000,31.00000,1.676970e-08,0.86774,4
489.416,325.998,     11.02475,     -2.68308,50.00000,31.00000,1.676624e-08,0.86764,4
497.403,326.378,     11.14433,     -2.61333,50.00000,31.00000,1.678322e-08,0.86755,4
505.419,326.758,     11.20790,     -2.56496,50.00000,31.00000,1.680027e-08,0.86741,4
513.397,327.138,     11.22008,     -2.51863,50.00000,31.00000,1.680147e-08,0.86730,4
521.351,327.518,     11.21772,     -2.44906,50.00000,31.00000,1.679064e-08,0.86720,4
529.278,327.898,     11.21373,     -2.40068,50.00000,31.00000,1.678728e-08,0.86711,4
537.199,328.278,     11.20339,     -2.33111,50.00000,31.00000,1.679970e-08,0.86696,4
545.111,328.658,     11.17627,     -2.30581,50.00000,31.00000,1.682169e-08,0.86686,4
552.975,329.038,     11.13321,     -2.23624,50.00000,31.00000,1.676090e-08,0.86676,4
560.831,329.418,     11.07900,     -2.21299,50.00000,31.00000,1.677804e-08,0.86667,4
568.676,329.798,     11.01218,     -2.16667,50.00000,31.00000,1.678477e-08,0.86653,4
576.493,330.178,     10.93015,     -2.10667,50.00000,31.00000,1.676862e-08,0.86642,4
584.304,330.558,     10.84120,     -2.08735,50.00000,31.00000,1.679323e-08,0.86633,4
592.111,330.938,     10.73807,     -2.01573,50.00000,31.00000,1.677016e-08,0.86623,4
599.877,331.318,     10.62684,     -2.01573,50.00000,31.00000,1.679095e-08,0.86607,4
607.65,331.698,     10.51338,     -1.96752,50.00000,31.00000,1.679348e-08,0.86598,4
615.408,332.078,     10.39530,     -1.93846,50.00000,31.00000,1.675783e-08,0.86588,4
623.148,332.458,     10.28822,     -1.89197,50.00000,31.00000,1.677141e-08,0.86578,4
630.884,332.838,     10.18771,     -1.84564,50.00000,31.00000,1.680054e-08,0.86564,4
638.602,333.218,     10.09163,     -1.81077,50.00000,31.00000,1.683946e-08,0.86554,4
646.324,333.598,     10.01114,     -1.77607,50.00000,31.00000,1.682199e-08,0.86544,4
654.016,333.978,      9.94561,     -1.72957,50.00000,31.00000,1.678248e-08,0.86535,4
661.707,334.358,      9.90535,     -1.70632,50.00000,31.00000,1.680007e-08,0.86520,4
669.394,334.738,      9.87853,     -1.68325,50.00000,31.00000,1.678841e-08,0.86510,4
677.078,335.118,      9.86659,     -1.67744,50.00000,31.00000,1.679896e-08,0.86501,4
684.773,335.498,      9.85742,     -1.66000,50.00000,31.00000,1.681520e-08,0.86490,4
692.444,335.878,      9.84550,     -1.63675,50.00000,31.00000,1.682130e-08,0.86474,4
700.119,336.258,      9.84320,     -1.63675,50.00000,31.00000,1.679917e-08,0.86466,4
707.791,336.638,      9.83022,     -1.63675,50.00000,31.00000,1.682975e-08,0.86456,4
715.464,337.018,      9.80105,     -1.63675,50.00000,31.00000,1.681757e-08,0.86445,4
723.135,337.398,      9.76087,     -1.63675,50.00000,31.00000,1.681966e-08,0.86436,4
730.794,337.778,      9.71635,     -1.63675,50.00000,31.00000,1.682191e-08,0.86421,4
738.459,338.158,      9.64298,     -1.61350,50.00000,31.00000,1.681723e-08,0.86411,4
746.117,338.538,      9.56362,     -1.63675,50.00000,31.00000,1.680115e-08,0.86401,4
753.777,338.918,      9.47691,     -1.61932,50.00000,31.00000,1.678184e-08,0.86391,4
761.445,339.298,      9.37974,     -1.61350,50.00000,31.00000,1.678483e-08,0.86377,4
769.107,339.678,      9.27473,     -1.61350,50.00000,31.00000,1.678320e-08,0.86367,4
776.763,340.058,      9.16412,     -1.61350,50.00000,31.00000,1.677224e-08,0.86356,4
784.412,340.438,      9.04933,     -1.61350,50.00000,31.00000,1.679718e-08,0.86347,4
792.065,340.818,      8.93481,     -1.61350,50.00000,31.00000,            ,0.44807,4
794.388,340.933,      8.90153,     -1.58650,50.00000,31.00000,            ,0.44714,4