File: data/TGA/commercial_samples/ExpDat_2025_08_06_SL_PS_Blue_Cup_SCF3_isothermal.csv
#EXPORTTYPE:                 ,DATA ALL
#FILE:                       ,2025_08_06_SL_PS_Blue_Cup_Functionalized_250721_P5EER2_V3_4_Isothermal.ngb-ss5
#FORMAT:                     ,NETZSCH5
#FTYPE:                      ,ASCII
#IDENTITY:                   ,250721-P5EER2-V3+4
#DECIMAL:                    ,POINT
#SEPARATOR:                  ,COMMA
#MTYPE:                      ,DSC
#INSTRUMENT:                 ,NETZSCH STA 449F5
#PROJECT:                    ,
#DATE/TIME:                  ,8/6/2025 12:56:57 PM (UTC-4)
#CORR. FILE:                 ,
#TEMPCAL:                    ,05-05-2025 14:38
#SENSITIVITY:                ,28-06-2023 13:53
#LABORATORY:                 ,Tran/AAG
#OPERATOR:                   ,Stanley
#REMARK:                     ,2025_03_29_SL_005d_M1_isothermal
#SAMPLE:                     ,250721-P5EER2-V3+4
#SAMPLE MASS /mg:            ,4.97
#MATERIAL:                   ,Polystyrene
#REFERENCE:                  ,
#REFERENCE MASS /mg:         ,0
#TYPE OF CRUCIBLE:           ,Al2O3 85 ‘l, open
#SAMPLE CRUCIBLE MASS /mg:   ,0
#REFERENCE CRUCIBLE MASS /mg:,0
#DSC RANGE /‘V:              ,5000
#TG RANGE /mg:               ,35000
#TAU-R:                      ,---
#CORR. CODE:                 ,000
#EXO:                        ,-1
#RANGE:                      ,30›C....800›C/0.0....20.0K/min
#SEGMENT:                    ,S1-5/5
#SEG. 1:                     ,30›C/10.0(K/min)/100›C
#SEG. 2:                     ,100›C/00:10/100›C
#SEG. 3:                     ,100›C/5.0(K/min)/300›C
#SEG. 4:                     ,300›C/20:00/300›C
#SEG. 5:                     ,300›C/20.0(K/min)/800›C

##Temp./›C,Time/min,DSC/(mW/mg),Mass/%,Gas Flow(purge2)/(ml/min),Gas Flow(protective)/(ml/min),TIC(scan:1)/A,Sensit./(uV/mW),Segment
 29.01400,   0.00000,      0.64854,    100,50.00000,50.00000,            ,0.92337,1
 73.67000,   6.32000,      2.66974,     96.23038,50.00000,50.00000,1.334049e-08,0.92423,1
103.601,   9.82000,      1.33154,     94.26579,50.00000,50.00000,1.335223e-08,0.92485,2
109.909,  12.98000,      0.13457,     92.09195,50.00000,50.00000,1.335709e-08,0.92540,2
107.799,  16.14000,     -0.34747,     90.54628,50.00000,50.00000,1.336172e-08,0.92585,2
115.225,  21.60000,      1.17532,     92.15111,50.00000,50.00000,1.335710e-08,0.92619,3
150.408,  27.92000,      2.06177,     93.31891,50.00000,50.00000,1.337953e-08,0.92518,3
184.821,  34.24000,      1.97865,     93.26881,50.00000,50.00000,1.338258e-08,0.92352,3
216.58,  40.56000,      1.97884,     92.95694,50.00000,50.00000,1.335486e-08,0.92214,3
248.02,  46.88000,      1.96142,     91.99175,50.00000,50.00000,1.333853e-08,0.92104,3
279.502,  53.20000,      1.86537,     90.93320,50.00000,50.00000,1.332451e-08,0.92013,3
302.575,  63.30000,     -0.97762,     88.46579,50.00000,43.00000,1.326272e-08,0.91901,4
300.073,  79.10000,     -0.85985,     86.24406,50.00000,43.00000,1.328788e-08,0.91831,4
300.034,  94.90000,     -0.86527,     84.96922,50.00000,43.00000,1.330408e-08,0.91851,4
300.01, 110.7,     -0.86837,     84.12475,50.00000,43.00000,1.327937e-08,0.91909,4
300.019, 126.5,     -0.87208,     83.50342,50.00000,43.00000,1.329388e-08,0.91848,4
300.017, 142.3,     -0.87344,     83.00483,50.00000,43.00000,1.328841e-08,0.91289,4
300.012, 158.1,     -0.87831,     82.50181,50.00000,43.00000,1.326755e-08,0.90332,4
300.005, 173.9,     -0.87909,     82.04869,50.00000,43.00000,1.325463e-08,0.89192,4
300.022, 189.7,     -0.88574,     81.61630,50.00000,43.00000,1.324434e-08,0.87956,4
300.015, 205.5,     -0.88865,     81.22254,50.00000,44.00000,1.327773e-08,0.86645,4
300.018, 221.3,     -0.88534,     80.77626,50.00000,43.00000,1.322918e-08,0.85218,4
300.018, 237.1,     -0.88690,     80.35734,50.00000,43.00000,1.328087e-08,0.83711,4
300.006, 252.9,     -0.88728,     79.98632,50.00000,43.00000,1.325751e-08,0.82121,4
300.025, 268.7,     -0.88808,     79.56519,50.00000,43.00000,1.323129e-08,0.80444,4
300.009, 284.5,     -0.88553,     79.13742,50.00000,44.00000,1.325689e-08,0.78582,4
300.014, 300.3,     -0.88826,     78.69115,50.00000,44.00000,1.323073e-08,0.78606,4
300.018, 316.1,     -0.88729,     78.25634,50.00000,44.00000,1.321479e-08,0.78708,4
300.021, 331.9,     -0.88749,     77.85573,50.00000,44.00000,1.329755e-08,0.78720,4
300.023, 347.7,     -0.88496,     77.47103,50.00000,44.00000,1.325793e-08,0.78718,4
300.011, 363.5,     -0.88611,     77.07726,50.00000,44.00000,1.325850e-08,0.78719,4
300.001, 379.3,     -0.88493,     76.66298,50.00000,45.00000,1.325565e-08,0.78720,4
300.011, 395.1,     -0.88182,     76.23280,50.00000,45.00000,1.323708e-08,0.78719,4
300.028, 410.9,     -0.87989,     75.84567,50.00000,45.00000,1.322873e-08,0.78721,4
300.016, 426.7,     -0.87949,     75.46559,50.00000,45.00000,1.322873e-08,0.78719,4
300.018, 442.5,     -0.87501,     75.07404,50.00000,44.00000,1.322332e-08,0.78719,4
300.019, 458.3,     -0.86935,     74.65070,50.00000,44.00000,1.321344e-08,0.78720,4
300.019, 474.1,     -0.86526,     74.21590,50.00000,44.00000,1.321639e-08,0.78719,4
300.02, 489.9,     -0.85804,     73.76519,50.00000,44.00000,1.326041e-08,0.78719,4
300.012, 505.7,     -0.85374,     73.37364,50.00000,44.00000,1.322369e-08,0.78720,4
300.018, 521.5,     -0.84556,     72.95936,50.00000,44.00000,1.321166e-08,0.78719,4
300.019, 537.3,     -0.84010,     72.47686,50.00000,44.00000,1.320039e-08,0.78720,4
300.021, 553.1,     -0.82216,     72.08531,50.00000,44.00000,1.321363e-08,0.78720,4
300.025, 568.9,     -0.81865,     71.66177,50.00000,44.00000,1.318214e-08,0.78719,4
300.012, 584.7,     -0.81260,     71.24527,50.00000,44.00000,1.318242e-08,0.78719,4
300.022, 600.5,     -0.80364,     70.79235,50.00000,44.00000,1.319949e-08,0.78718,4
300.023, 616.3,     -0.79369,     70.38249,50.00000,44.00000,1.316870e-08,0.78721,4
300.029, 632.1,     -0.79253,     69.93400,50.00000,44.00000,1.318510e-08,0.78719,4
300.008, 647.9,     -0.78880,     69.49698,50.00000,44.00000,1.316153e-08,0.78719,4
300.005, 663.7,     -0.78334,     69.07827,50.00000,44.00000,1.316809e-08,0.78720,4
300.011, 679.5,     -0.77827,     68.62515,50.00000,44.00000,1.318435e-08,0.78719,4
300.015, 695.3,     -0.78023,     68.21992,50.00000,44.00000,1.318392e-08,0.78719,4
300.014, 711.1,     -0.77672,     67.76922,50.00000,44.00000,1.315788e-08,0.78721,4
300.019, 726.9,     -0.77614,     67.28451,50.00000,44.00000,1.314582e-08,0.78720,4
300.022, 742.7,     -0.77848,     66.84748,50.00000,44.00000,1.315008e-08,0.78720,4
300.021, 758.5,     -0.77419,     66.42857,50.00000,44.00000,1.315967e-08,0.78720,4
300.006, 774.3,     -0.77359,     65.96881,50.00000,44.00000,1.316756e-08,0.78719,4
300.021, 790.1,     -0.77263,     65.51127,50.00000,44.00000,1.317088e-08,0.78719,4
300.018, 805.9,     -0.77321,     65.08551,50.00000,44.00000,1.316552e-08,0.78719,4
300.022, 821.7,     -0.76853,     64.60060,50.00000,45.00000,1.317112e-08,0.78719,4
300.014, 837.5,     -0.77477,     64.15674,50.00000,45.00000,1.314193e-08,0.78720,4
300.01, 853.3,     -0.77398,     63.74024,50.00000,45.00000,1.315425e-08,0.78719,4
300.018, 869.1,     -0.77399,     63.26901,50.00000,44.00000,1.314002e-08,0.78718,4
300.01, 884.9,     -0.77749,     62.83199,50.00000,45.00000,1.314465e-08,0.78718,4
300.017, 900.7,     -0.78842,     62.36076,50.00000,45.00000,1.314188e-08,0.78719,4
300.019, 916.5,     -0.79934,     61.93742,50.00000,44.00000,1.315051e-08,0.78719,4
300.009, 932.3,     -0.80382,     61.51167,50.00000,44.00000,1.314786e-08,0.78719,4
300.01, 948.1,     -0.79992,     61.04728,50.00000,44.00000,1.312451e-08,0.78718,4
300.009, 963.9,     -0.80382,     60.61710,50.00000,44.00000,1.316134e-08,0.78720,4
300.011, 979.7,     -0.80246,     60.18692,50.00000,44.00000,1.310276e-08,0.78719,4
300.017, 995.5,     -0.80734,     59.73602,50.00000,44.00000,1.311212e-08,0.78719,4
300.016,1011.3,     -0.80305,     59.29678,50.00000,45.00000,1.309644e-08,0.78719,4
300.014,1027.1,     -0.80577,     58.85755,50.00000,45.00000,1.309280e-08,0.78719,4
300.023,1042.9,     -0.80598,     58.44547,50.00000,45.00000,1.309659e-08,0.78719,4
300.021,1058.7,     -0.80871,     57.97425,50.00000,45.00000,1.311427e-08,0.78717,4
300.005,1074.5,     -0.80752,     57.55996,50.00000,45.00000,1.308950e-08,0.78720,4
300.023,1090.3,     -0.80364,     57.09095,50.00000,45.00000,1.307690e-08,0.78718,4
300.009,1106.1,     -0.80635,     56.68813,50.00000,45.00000,1.306482e-08,0.78719,4
300.018,1121.9,     -0.80831,     56.23964,50.00000,45.00000,1.305083e-08,0.78718,4
300.022,1137.7,     -0.80871,     55.81167,50.00000,45.00000,1.307323e-08,0.78719,4
300.01,1153.5,     -0.81045,     55.37465,50.00000,44.00000,1.305065e-08,0.78719,4
300.022,1169.3,     -0.80754,     54.96499,50.00000,44.00000,1.304746e-08,0.78719,4
300.024,1185.1,     -0.80929,     54.52555,50.00000,44.00000,1.302779e-08,0.78718,4
300.029,1200.9,     -0.81573,     54.06358,50.00000,45.00000,1.301032e-08,0.78718,4
300.015,1216.7,     -0.81318,     53.65151,50.00000,45.00000,1.304290e-08,0.78719,4
300.026,1232.5,     -0.73129,     53.36700,50.00000,44.00000,1.302077e-08,0.78719,4
300.012,1248.3,     -0.73362,     52.79779,50.00000,44.00000,1.299907e-08,0.78719,4
300.451,1257.36,     -0.29637,     52.69537,50.00000,50.00000,1.302640e-08,0.78719,5
309.431,1258.14,      4.84209,     53.96781,50.00000,50.00000,1.299960e-08,0.78718,5
323.576,1258.93,      7.36501,     54.42093,50.00000,50.00000,1.301368e-08,0.78718,5
337.041,1259.72,      7.64951,     54.57344,50.00000,50.00000,1.300902e-08,0.78719,5
352.74,1260.52,      9.16122,     54.90342,50.00000,50.00000,1.302815e-08,0.78718,5
369.812,1261.31,     10.03320,     54.90563,50.00000,50.00000,1.301401e-08,0.78718,5
386.872,1262.1,     10.41246,     53.97243,50.00000,50.00000,1.301126e-08,0.78719,5
404.151,1262.88,     10.81730,     50.89477,50.00000,50.00000,1.302789e-08,0.78719,5
421.385,1263.67,     12.41362,     42.75010,50.00000,50.00000,1.303729e-08,0.78719,5
438.365,1264.46,     13.67601,     25.92334,50.00000,50.00000,1.301648e-08,0.78719,5
455.157,1265.26,     12.50678,      7.32575,50.00000,50.00000,1.301322e-08,0.78720,5
471.81,1266.05,     10.51380,     -0.45473,50.00000,50.00000,1.303716e-08,0.78719,5
488.285,1266.84,      9.31742,     -2.09376,50.00000,50.00000,1.301200e-08,0.78720,5
504.592,1267.62,      8.69772,     -2.22797,50.00000,50.00000,1.300024e-08,0.78720,5
520.757,1268.41,      8.25807,     -2.13239,50.00000,50.00000,1.301312e-08,0.78719,5
536.813,1269.2,      7.85625,     -2.01187,50.00000,50.00000,1.298984e-08,0.78719,5
552.819,1269.99,      7.48885,     -1.84789,50.00000,50.00000,1.298922e-08,0.78720,5
568.797,1270.79,      7.13751,     -1.68390,50.00000,50.00000,1.303113e-08,0.78719,5
584.736,1271.58,      6.80785,     -1.54748,50.00000,50.00000,1.300722e-08,0.78719,5
600.66,1272.37,      6.48870,     -1.41771,50.00000,50.00000,1.298959e-08,0.78719,5
616.574,1273.15,      6.19540,     -1.29014,50.00000,50.00000,1.303671e-08,0.78719,5
632.473,1273.94,      5.90731,     -1.12636,50.00000,50.00000,1.299953e-08,0.78719,5
648.351,1274.73,      5.60257,     -1.02616,50.00000,50.00000,1.298556e-08,0.78719,5
664.227,1275.53,      5.28700,     -0.88491,50.00000,50.00000,1.303353e-08,0.78719,5
680.099,1276.32,      4.93851,     -0.77565,50.00000,50.00000,1.300414e-08,0.78719,5
696,1277.11,      4.52214,     -0.67324,50.00000,50.00000,1.301731e-08,0.78720,5
711.892,1277.89,      4.06883,     -0.58451,50.00000,50.00000,1.300397e-08,0.78719,5
727.801,1278.68,      3.54955,     -0.44789,50.00000,50.00000,1.296913e-08,0.78720,5
743.719,1279.47,      2.98822,     -0.33863,50.00000,50.00000,1.300283e-08,0.78720,5
759.596,1280.27,      2.39806,     -0.22938,50.00000,50.00000,1.299417e-08,0.78720,5
775.479,1281.06,      1.80294,     -0.14748,50.00000,50.00000,1.300755e-08,0.78719,5
791.369,1281.85,      1.22712,-3.601610e-02,50.00000,50.00000,            ,0.44835,5
794.487,1282,      1.11553,-3.601610e-02,50.00000,50.00000,            ,0.44710,5