File: data/TGA/commercial_samples/ExpDat_2025_08_22_SL_PS_Cup_Lid_SCF3_Dynamic.csv
#EXPORTTYPE:                 ,DATA ALL
#FILE:                       ,2025_08_22_SL_PS_Cup_Lid_SCF3_Dynamic.ngb-ss5
#FORMAT:                     ,NETZSCH5
#FTYPE:                      ,ASCII
#IDENTITY:                   ,PS-Cup-Lid-SCF3
#DECIMAL:                    ,POINT
#SEPARATOR:                  ,COMMA
#MTYPE:                      ,DSC
#INSTRUMENT:                 ,NETZSCH STA 449F5
#PROJECT:                    ,Polystyrene
#DATE/TIME:                  ,8/22/2025 5:43:50 PM (UTC-4)
#CORR. FILE:                 ,
#TEMPCAL:                    ,05-05-2025 14:38
#SENSITIVITY:                ,28-06-2023 13:53
#LABORATORY:                 ,Tran/AAG
#OPERATOR:                   ,Stanley
#REMARK:                     ,2025_03_20_Styrofoam_dynamic
#SAMPLE:                     ,PS-Cup-Lid-SCF3
#SAMPLE MASS /mg:            ,3.26
#MATERIAL:                   ,Polystyrene
#REFERENCE:                  ,
#REFERENCE MASS /mg:         ,0
#TYPE OF CRUCIBLE:           ,Al2O3 85 ‘l, open
#SAMPLE CRUCIBLE MASS /mg:   ,0
#REFERENCE CRUCIBLE MASS /mg:,0
#DSC RANGE /‘V:              ,5000
#TG RANGE /mg:               ,35000
#TAU-R:                      ,---
#CORR. CODE:                 ,000
#EXO:                        ,-1
#RANGE:                      ,20›C....800›C/0.0....20.0K/min
#SEGMENT:                    ,S1-4/4
#SEG. 1:                     ,20›C/5.0(K/min)/100›C
#SEG. 2:                     ,100›C/00:05/100›C
#SEG. 3:                     ,100›C/1.0(K/min)/400›C
#SEG. 4:                     ,400›C/20.0(K/min)/800›C

##Temp./›C,Time/min,DSC/(mW/mg),Mass/%,Gas Flow(purge2)/(ml/min),Gas Flow(protective)/(ml/min),TIC(scan:1)/A,Sensit./(uV/mW),Segment
 28.24600,  0.00000,      0.84084,    100,50.00000,54.00000,            ,0.92322,1
 37.55000,  5.06667,      0.52259,     85.92055,50.00000,51.00000,9.887467e-09,0.92398,1
 61.21300, 10.13333,      1.61085,     88.93650,50.00000,51.00000,9.877026e-09,0.92442,1
 92.02300, 15.20000,      1.92334,     89.98436,50.00000,51.00000,9.879165e-09,0.92514,1
106.759, 19.13500,      0.60135,     87.31227,50.00000,51.00000,9.876310e-09,0.92576,2
107.429, 23.60167,-8.938110e-02,     84.72699,50.00000,51.00000,9.870717e-09,0.92618,3
107.913, 28.66833,      0.13269,     84.03282,50.00000,51.00000,9.868332e-09,0.92591,3
111.874, 33.73500,      0.34019,     83.78650,50.00000,51.00000,9.867731e-09,0.92476,3
117.159, 38.80167,      0.39705,     83.59202,50.00000,51.00000,9.869889e-09,0.92273,3
122.44, 43.86833,      0.39735,     83.27270,50.00000,51.00000,9.888396e-09,0.92072,3
127.587, 48.93500,      0.39590,     83.07853,50.00000,51.00000,9.855550e-09,0.91959,3
132.643, 54.00167,      0.40014,     82.97086,50.00000,51.00000,9.854965e-09,0.91900,3
137.711, 59.06833,      0.40446,     82.81472,50.00000,51.00000,9.845182e-09,0.91892,3
142.782, 64.13500,      0.40834,     82.71748,50.00000,51.00000,9.853732e-09,0.91903,3
147.864, 69.20167,      0.40790,     82.50920,50.00000,51.00000,9.859336e-09,0.91911,3
152.943, 74.26833,      0.40725,     82.34264,50.00000,51.00000,9.857788e-09,0.91903,3
158.005, 79.33500,      0.40299,     82.17270,50.00000,51.00000,9.859264e-09,0.91876,3
163.083, 84.40167,      0.40060,     81.89172,50.00000,51.00000,9.847740e-09,0.91832,3
168.146, 89.46833,      0.39037,     81.63834,50.00000,51.00000,9.876283e-09,0.91779,3
173.204, 94.53500,      0.38406,     81.29110,50.00000,51.00000,9.850790e-09,0.91715,3
178.257, 99.60167,      0.37300,     80.95460,50.00000,51.00000,9.858171e-09,0.91646,3
183.342,104.668,      0.36111,     80.52086,50.00000,51.00000,9.890912e-09,0.91574,3
188.411,109.735,      0.35024,     80.04877,50.00000,51.00000,9.892546e-09,0.91500,3
193.474,114.802,      0.33745,     79.46227,50.00000,51.00000,9.902930e-09,0.91425,3
198.535,119.868,      0.32272,     78.91748,50.00000,51.00000,9.908899e-09,0.91349,3
203.601,124.935,      0.30709,     78.27209,50.00000,51.00000,9.892809e-09,0.91270,3
208.662,130.002,      0.28540,     77.52239,50.00000,51.00000,9.896573e-09,0.91195,3
213.732,135.068,      0.26710,     76.75184,50.00000,51.00000,9.897150e-09,0.91114,3
218.806,140.135,      0.24701,     75.88436,50.00000,51.00000,9.898148e-09,0.91031,3
223.876,145.202,      0.22265,     74.98221,50.00000,51.00000,9.912175e-09,0.90947,3
228.927,150.268,      0.19808,     74.03129,50.00000,51.00000,9.908431e-09,0.90860,3
233.993,155.335,      0.16776,     73.00399,50.00000,51.00000,9.885897e-09,0.90771,3
239.054,160.402,      0.14104,     71.99417,50.00000,51.00000,9.899904e-09,0.90683,3
244.12,165.468,      0.10764,     70.91472,50.00000,51.00000,9.913490e-09,0.90591,3
249.193,170.535, 7.756504e-02,     69.79387,50.00000,51.00000,9.904241e-09,0.90497,3
254.244,175.602, 4.293987e-02,     68.72853,50.00000,51.00000,9.891473e-09,0.90399,3
259.307,180.668, 5.396059e-03,     67.71166,50.00000,51.00000,9.897684e-09,0.90301,3
264.387,185.735,-3.055343e-02,     66.67055,50.00000,51.00000,9.898458e-09,0.90201,3
269.452,190.802,-7.350224e-02,     65.60859,50.00000,51.00000,9.893795e-09,0.90098,3
274.521,195.868,     -0.11231,     64.61595,50.00000,51.00000,9.908444e-09,0.89994,3
279.587,200.935,     -0.15999,     63.63405,50.00000,51.00000,9.897694e-09,0.89888,3
284.642,206.002,     -0.20676,     62.62423,50.00000,51.00000,9.904329e-09,0.89781,3
289.703,211.068,     -0.25378,     61.70798,50.00000,51.00000,9.898284e-09,0.89675,3
294.784,216.135,     -0.30138,     60.82301,50.00000,51.00000,9.911473e-09,0.89565,3
299.827,221.202,     -0.35014,     59.93466,50.00000,51.00000,9.921800e-09,0.89450,3
304.906,226.268,     -0.39831,     59.13282,50.00000,51.00000,9.899080e-09,0.89336,3
309.975,231.335,     -0.45250,     58.26196,50.00000,51.00000,9.897938e-09,0.89220,3
315.038,236.402,     -0.50464,     57.46718,50.00000,51.00000,9.920328e-09,0.89102,3
320.111,241.468,     -0.55957,     56.67577,50.00000,51.00000,9.907423e-09,0.88982,3
325.176,246.535,     -0.61950,     55.82209,50.00000,51.00000,9.934505e-09,0.88861,3
330.244,251.602,     -0.66570,     55.01012,50.00000,51.00000,9.932273e-09,0.88742,3
335.317,256.668,     -0.72088,     54.13558,50.00000,51.00000,9.951156e-09,0.88619,3
340.367,261.735,     -0.77801,     53.20890,50.00000,51.00000,9.945361e-09,0.88492,3
345.439,266.802,     -0.83339,     52.16779,50.00000,51.00000,9.945881e-09,0.88365,3
350.51,271.868,     -0.88918,     51.03650,50.00000,51.00000,9.939035e-09,0.88235,3
355.587,276.935,     -0.94347,     49.53374,50.00000,51.00000,9.960352e-09,0.88104,3
360.63,282.002,     -0.99267,     47.69448,50.00000,51.00000,9.958433e-09,0.87972,3
365.714,287.068,     -1.03836,     45.14049,50.00000,51.00000,9.954656e-09,0.87837,3
370.785,292.135,     -1.08042,     41.60767,50.00000,51.00000,9.970567e-09,0.87702,3
375.845,297.202,     -1.12136,     36.53037,50.00000,51.00000,9.959126e-09,0.87565,3
380.906,302.268,     -1.17272,     29.47853,50.00000,51.00000,9.972541e-09,0.87427,3
385.972,307.335,     -1.26621,     20.95184,50.00000,51.00000,9.966128e-09,0.87287,3
391.05,312.402,     -1.42841,     12.28988,50.00000,51.00000,9.970160e-09,0.87146,3
396.094,317.468,     -1.63909,      5.18252,50.00000,51.00000,9.969590e-09,0.87003,3
399.716,321.055,     -1.79839,      1.43804,50.00000,51.00000,9.964388e-09,0.86902,4
401.673,321.435,     -0.17577,      1.56656,50.00000,51.00000,9.956435e-09,0.86893,4
407.149,321.815,      3.73860,      2.13926,50.00000,51.00000,9.958364e-09,0.86883,4
414.641,322.195,      6.91976,      2.32638,50.00000,51.00000,9.959698e-09,0.86869,4
421.916,322.575,      7.74401,      2.01074,50.00000,51.00000,9.952799e-09,0.86860,4
428.37,322.955,      7.21646,      1.39632,50.00000,51.00000,9.967567e-09,0.86850,4
434.709,323.335,      6.92979,      0.77883,50.00000,51.00000,9.968243e-09,0.86840,4
441.592,323.715,      7.41821,      0.19233,50.00000,51.00000,9.979257e-09,0.86826,4
449.146,324.095,      8.20972,     -0.41840,50.00000,51.00000,9.974051e-09,0.86816,4
457.013,324.475,      8.71652,     -1.11258,50.00000,51.00000,9.958124e-09,0.86806,4
464.903,324.855,      8.81828,     -1.87607,50.00000,51.00000,9.964708e-09,0.86797,4
472.735,325.235,      8.75095,     -2.47301,50.00000,51.00000,9.963308e-09,0.86782,4
480.61,325.615,      8.71359,     -2.82362,50.00000,51.00000,9.938863e-09,0.86773,4
488.587,325.995,      8.73284,     -3.08374,50.00000,51.00000,9.960034e-09,0.86763,4
496.595,326.375,      8.72660,     -3.16718,50.00000,51.00000,9.961354e-09,0.86754,4
504.612,326.755,      8.66038,     -3.16718,50.00000,51.00000,9.958969e-09,0.86739,4
512.609,327.135,      8.55357,     -3.15675,50.00000,51.00000,9.955830e-09,0.86730,4
520.58,327.515,      8.43581,     -3.08374,50.00000,51.00000,9.964459e-09,0.86719,4
528.556,327.895,      8.32117,     -3.03160,50.00000,51.00000,9.958130e-09,0.86710,4
536.498,328.275,      8.20133,     -2.94847,50.00000,51.00000,9.955343e-09,0.86694,4
544.429,328.655,      8.07444,     -2.86503,50.00000,51.00000,9.969928e-09,0.86685,4
552.347,329.035,      7.95313,     -2.78190,50.00000,51.00000,9.940820e-09,0.86676,4
560.254,329.415,      7.84018,     -2.69847,50.00000,51.00000,9.961449e-09,0.86665,4
568.133,329.795,      7.71521,     -2.57362,50.00000,51.00000,9.949633e-09,0.86650,4
575.976,330.175,      7.60461,     -2.49049,50.00000,51.00000,9.964779e-09,0.86641,4
583.825,330.555,      7.50926,     -2.36534,50.00000,51.00000,9.972986e-09,0.86631,4
591.66,330.935,      7.42433,     -2.28221,50.00000,51.00000,9.951706e-09,0.86621,4
599.455,331.315,      7.34301,     -2.19877,50.00000,51.00000,9.961816e-09,0.86612,4
607.266,331.695,      7.26334,     -2.11564,50.00000,51.00000,9.965938e-09,0.86597,4
615.042,332.075,      7.19519,     -2.03221,50.00000,51.00000,9.959026e-09,0.86587,4
622.814,332.455,      7.12940,     -1.94908,50.00000,51.00000,9.959417e-09,0.86577,4
630.574,332.835,      7.07054,     -1.82393,50.00000,51.00000,9.963560e-09,0.86563,4
638.31,333.215,      7.03736,     -1.74080,50.00000,51.00000,9.953492e-09,0.86553,4
646.05,333.595,      6.98509,     -1.69908,50.00000,51.00000,9.960027e-09,0.86544,4
653.77,333.975,      6.92975,     -1.53252,50.00000,51.00000,9.958703e-09,0.86534,4
661.486,334.355,      6.88121,     -1.49080,50.00000,51.00000,9.951934e-09,0.86519,4
669.202,334.735,      6.85000,     -1.36258,50.00000,51.00000,9.965282e-09,0.86509,4
676.936,335.115,      6.79907,     -1.38344,50.00000,51.00000,9.958917e-09,0.86499,4
684.639,335.495,      6.72345,     -1.25828,50.00000,51.00000,9.946366e-09,0.86490,4
692.337,335.875,      6.63576,     -1.17515,50.00000,51.00000,9.970838e-09,0.86475,4
700.034,336.255,      6.53153,     -1.10215,50.00000,51.00000,9.970991e-09,0.86466,4
707.727,336.635,      6.42742,     -1.01902,50.00000,51.00000,9.951377e-09,0.86455,4
715.416,337.015,      6.29915,     -0.93558,50.00000,51.00000,9.964491e-09,0.86446,4
723.117,337.395,      6.13657,     -0.85245,50.00000,51.00000,9.992012e-09,0.86431,4
730.811,337.775,      5.95329,     -0.76902,50.00000,51.00000,9.947888e-09,0.86421,4
738.485,338.155,      5.72054,     -0.69632,50.00000,51.00000,9.965153e-09,0.86411,4
746.171,338.535,      5.46614,     -0.64417,50.00000,51.00000,9.958637e-09,0.86400,4
753.856,338.915,      5.16545,     -0.56074,50.00000,51.00000,9.973470e-09,0.86386,4
761.517,339.295,      4.83682,     -0.44632,50.00000,51.00000,9.966031e-09,0.86375,4
769.186,339.675,      4.48148,     -0.39417,50.00000,51.00000,9.963979e-09,0.86367,4
776.871,340.055,      4.10774,     -0.32485,50.00000,51.00000,9.979046e-09,0.86356,4
784.546,340.435,      3.69910,     -0.24141,50.00000,51.00000,9.948500e-09,0.86341,4
792.216,340.815,      3.26853,     -0.15828,50.00000,51.00000,            ,0.44801,4
794.636,340.935,      3.12905,     -0.15828,50.00000,51.00000,            ,0.44704,4