File: data/TGA/005d-L_M/005h-A3-temp_104 AMU_XIC
Time	Ion Current
min	mA
0.00	1.90000e-5
3.88	9.26828e-6
7.76	2.42134e-5
11.64	1.00000e-13
15.52	1.85366e-6
19.39	3.05853e-5
23.28	1.00000e-13
27.16	1.15853e-6
31.04	1.05427e-5
34.92	1.04268e-5
38.79	5.79267e-6
42.67	9.15242e-6
46.56	6.95121e-6
50.43	8.10974e-6
54.32	1.00000e-13
58.20	1.00000e-13
62.08	1.00000e-13
65.96	2.78048e-6
69.83	8.10974e-7
73.71	1.00000e-13
77.59	1.00000e-13
81.47	1.00000e-13
85.36	1.00000e-13
89.24	6.83536e-6
93.11	5.44511e-6
96.99	1.00000e-13
100.87	1.00000e-13
104.76	1.00000e-13
108.64	6.83536e-6
112.51	1.00000e-13
116.39	1.00000e-13
120.27	1.00000e-13
124.15	1.00000e-13
128.03	1.00000e-13
131.91	1.00000e-13
135.79	2.54878e-6
139.67	3.00061e-5
143.55	1.00000e-13
147.43	1.00000e-13
151.31	1.32073e-5
155.19	7.29877e-6
159.07	1.00000e-13
162.95	1.00000e-13
166.83	1.00000e-13
170.71	1.00000e-13
174.59	1.00000e-13
178.47	1.00000e-13
182.35	1.00000e-13
186.23	1.00000e-13
190.11	1.00000e-13
193.99	1.00000e-13
197.87	1.00000e-13
201.75	1.00000e-13
205.63	1.00000e-13
209.51	1.00000e-13
213.39	1.00000e-13
217.27	2.78048e-6
221.15	1.00000e-13
225.03	1.00000e-13
228.91	1.00000e-13
232.79	1.00000e-13
236.67	1.00000e-13
240.55	1.00000e-13
244.43	1.00000e-13
248.31	1.00000e-13
252.19	1.00000e-13
256.07	1.00000e-13
259.95	1.00000e-13
263.83	1.00000e-13
267.71	1.00000e-13
271.59	1.00000e-13
275.47	1.00000e-13
279.35	1.00000e-13
283.23	1.00000e-13
287.11	1.00000e-13
290.99	6.95121e-6
294.87	1.01951e-5
298.75	1.00000e-13
302.63	1.11219e-5
306.51	1.00000e-13
310.39	1.00000e-13
314.26	8.10974e-6
318.15	1.00000e-13
322.02	1.00000e-13
325.91	1.00000e-13
329.78	1.00000e-13
333.67	1.00000e-13
337.54	1.00000e-13
341.42	1.00000e-13
345.30	1.00000e-13
349.19	8.34145e-6
353.06	1.00000e-13
356.94	1.00000e-13
360.82	6.95121e-7
364.70	1.00000e-13
368.59	1.00000e-13
372.47	1.00000e-13
376.34	1.00000e-13
380.22	1.00000e-13
384.10	1.00000e-13
387.98	1.00000e-13
391.87	1.00000e-13
395.74	1.00000e-13
399.63	3.47560e-7
403.50	1.00000e-13
407.38	1.00000e-13
411.26	1.00000e-13
415.14	4.63414e-7
419.02	1.00000e-13
422.90	1.00000e-13
426.78	1.00000e-13
430.66	1.00000e-13
434.54	2.16646e-5
438.42	1.00000e-13
442.30	1.00000e-13
446.18	1.00000e-13
450.06	1.00000e-13
453.94	2.42134e-5
457.82	1.00000e-13
461.70	1.00000e-13
465.58	1.00000e-13
469.46	1.00000e-13
473.34	1.00000e-13
477.22	1.00000e-13
481.10	1.00000e-13
484.98	1.00000e-13
488.86	1.00000e-13
492.74	1.00000e-13
496.62	1.00000e-13
500.50	1.00000e-13
504.38	1.00000e-13
508.26	1.00000e-13
512.14	2.31707e-7
516.02	1.00000e-13
519.90	1.00000e-13
523.78	1.00000e-13
527.66	1.00000e-13
531.54	1.00000e-13
535.42	1.00000e-13
539.30	1.00000e-13
543.18	1.00000e-13
547.06	1.00000e-13
550.94	1.00000e-13
554.82	1.00000e-13
558.70	1.00000e-13
562.58	1.00000e-13
566.46	1.00000e-13
570.34	1.00000e-13
574.22	1.00000e-13
578.10	1.00000e-13
581.98	1.04268e-6
585.86	1.00000e-13
589.73	1.00000e-13
593.62	1.00000e-13
597.50	1.00000e-13
601.38	1.00000e-13
605.25	1.00000e-13
609.13	1.00000e-13
613.02	1.00000e-13
616.89	1.00000e-13
620.77	1.00000e-13
624.65	1.00000e-13
628.53	1.15853e-6
632.42	1.00000e-13
636.29	1.00000e-13
640.17	1.00000e-13
644.05	1.15853e-5
647.93	1.00000e-13
651.82	1.00000e-13
655.69	1.00000e-13
659.57	1.00000e-13
663.45	1.00000e-13
667.33	1.00000e-13
671.21	1.00000e-13
675.09	1.00000e-13
678.97	1.00000e-13
682.85	1.00000e-13
686.73	1.00000e-13
690.61	1.00000e-13
694.49	2.24756e-5
698.37	1.00000e-13
702.25	1.00000e-13
706.13	1.00000e-13
710.01	1.00000e-13
713.89	1.00000e-13
717.77	4.28658e-6
721.65	1.00000e-13
725.53	1.00000e-13
729.41	1.00000e-13
733.29	1.00000e-13
737.17	1.00000e-13
741.05	1.00000e-13
744.93	1.00000e-13
748.81	1.45975e-5
752.69	1.00000e-13
756.57	1.00000e-13
760.45	1.00000e-13
764.33	1.00000e-13
768.21	1.00000e-13
772.09	1.00000e-13
775.97	1.00000e-13
779.85	5.79267e-7
783.73	1.00000e-13
787.61	1.00000e-13
791.49	1.00000e-13
795.37	1.00000e-13
799.25	1.00000e-13
803.13	1.00000e-13
807.01	1.00000e-13
810.89	1.00000e-13
814.77	1.00000e-13
818.65	1.00000e-13
822.53	1.00000e-13
826.41	1.00000e-13
830.29	1.00000e-13
834.17	1.00000e-13
838.05	1.00000e-13
841.93	1.00000e-13
845.81	1.00000e-13
849.69	1.00000e-13
853.57	1.00000e-13
857.44	1.00000e-13
861.32	1.00000e-13
865.20	1.00000e-13
869.09	1.00000e-13
872.96	1.00000e-13
876.85	1.00000e-13
880.72	1.00000e-13
884.61	1.00000e-13
888.49	1.00000e-13
892.36	1.00000e-13
896.24	1.00000e-13
900.12	1.00000e-13
904.01	1.00000e-13
907.89	8.45730e-6
911.76	1.00000e-13
915.64	1.00000e-13
919.53	1.00000e-13
923.41	1.00000e-13
927.28	1.00000e-13
931.16	1.00000e-13
935.04	1.00000e-13
938.92	1.00000e-13
942.80	1.00000e-13
946.68	1.00000e-13
950.56	1.00000e-13
954.44	1.00000e-13
958.32	1.00000e-13
962.20	1.00000e-13
966.08	1.00000e-13
969.96	1.00000e-13
973.84	1.00000e-13
977.72	1.00000e-13
981.60	1.00000e-13
985.48	1.00000e-13
989.36	1.00000e-13
993.24	1.00000e-13
997.12	1.00000e-13
1001.00	1.00000e-13
1004.88	1.00000e-13
1008.76	1.00000e-13
1012.64	1.00000e-13
1016.52	1.00000e-13
1020.40	1.00000e-13
1024.28	4.63414e-7
1028.16	1.00000e-13
1032.04	1.00000e-13
1035.92	1.00000e-13
1039.80	1.00000e-13
1043.68	2.54878e-6
1047.56	1.00000e-13
1051.44	1.00000e-13
1055.32	1.00000e-13
1059.20	1.00000e-13
1063.08	1.00000e-13
1066.96	1.00000e-13
1070.84	1.00000e-13
1074.72	1.00000e-13
1078.60	1.00000e-13
1082.48	1.00000e-13
1086.36	1.00000e-13
1090.24	1.00000e-13
1094.12	1.00000e-13
1098.00	1.00000e-13
1101.88	1.00000e-13
1105.76	1.00000e-13
1109.64	1.00000e-13
1113.52	1.00000e-13
1117.40	1.00000e-13
1121.28	1.00000e-13
1125.16	1.00000e-13
1129.04	1.00000e-13
1132.91	1.00000e-13
1136.79	1.00000e-13
1140.68	1.00000e-13
1144.55	1.00000e-13
1148.44	1.00000e-13
1152.31	1.00000e-13
1153.61	1.00000e-13