File: data/TGA/005d-L_M/A1000_000001 -temp_104 AMU_XIC
Time	Ion Current
min	mA
0.00	1.00000e-13
4.52	1.00000e-13
9.05	1.00000e-13
13.58	1.30914e-5
18.10	1.00000e-13
22.63	1.00000e-13
27.16	1.00000e-13
31.68	1.00000e-13
36.21	1.00000e-13
40.74	1.00000e-13
45.27	1.00000e-13
49.79	1.00000e-13
54.32	1.00000e-13
58.84	3.47560e-7
63.37	3.02378e-5
67.90	7.10182e-5
72.42	1.40878e-4
76.95	9.09450e-5
81.48	4.76158e-5
86.00	1.27786e-4
90.53	1.42152e-4
95.06	9.56950e-5
99.58	6.01280e-5
104.11	4.05487e-5
108.63	1.14927e-4
113.16	6.32560e-5
117.69	1.34042e-4
122.21	6.15182e-5
126.74	6.11706e-5
131.27	6.24450e-5
135.80	4.39085e-5
140.32	3.57987e-5
144.85	4.68048e-5
149.37	4.77316e-5
153.90	2.56036e-5
158.42	1.85366e-5
162.96	2.22439e-5
167.48	1.66829e-5
172.00	2.72256e-5
176.53	9.61584e-6
181.06	1.00000e-13
185.58	5.61889e-5
190.11	4.22865e-5
194.64	1.87683e-5
199.17	2.38658e-5
203.69	2.66463e-5
208.22	1.34390e-5
212.74	1.00000e-13
217.27	6.14023e-6
221.80	1.59878e-5
226.32	1.00000e-13
230.85	8.10974e-6
235.38	7.18292e-6
239.90	1.19329e-5
244.43	1.00000e-13
248.96	5.78109e-5
253.48	1.00000e-13
258.01	1.65670e-5
262.54	7.87804e-6
267.06	1.00000e-13
271.59	1.00000e-13
276.11	1.00000e-13
280.64	2.56036e-5
285.17	1.00000e-13
289.70	1.00000e-13
294.22	1.00000e-13
298.75	1.00000e-13
303.27	1.00000e-13
307.80	1.00000e-13
312.33	1.00000e-13
316.85	1.00000e-13
321.38	1.00000e-13
325.91	1.00000e-13
330.43	3.20914e-5
334.96	1.00000e-13
339.49	1.00000e-13
344.01	1.00000e-13
348.54	1.00000e-13
353.07	1.00000e-13
357.59	1.00000e-13
362.12	1.00000e-13
366.65	1.00000e-13
371.17	1.00000e-13
375.70	1.00000e-13
380.22	3.38292e-5
384.75	1.00000e-13
389.28	1.00000e-13
393.80	1.00000e-13
398.33	1.00000e-13
402.86	1.00000e-13
407.38	1.00000e-13
411.91	1.00000e-13
416.44	1.00000e-13
420.96	1.00000e-13
425.49	1.00000e-13
430.02	1.00000e-13
434.54	1.00000e-13
439.07	1.00000e-13
443.60	1.00000e-13
448.13	1.00000e-13
452.65	1.00000e-13
457.18	1.00000e-13
461.70	8.68901e-6
466.23	1.00000e-13
470.76	1.00000e-13
475.28	1.00000e-13
479.81	1.00000e-13
484.34	1.00000e-13
488.86	1.00000e-13
493.39	5.79267e-7
497.92	1.00000e-13
502.44	1.00000e-13
506.97	1.00000e-13
511.49	1.00000e-13
516.02	8.10974e-6
520.55	1.00000e-13
525.07	2.20122e-6
529.60	1.00000e-13
534.13	1.00000e-13
538.66	1.00000e-13
543.18	1.00000e-13
547.71	1.00000e-13
552.23	1.00000e-13
556.76	1.00000e-13
561.29	1.00000e-13
565.82	1.00000e-13
570.34	1.00000e-13
574.87	1.00000e-13
579.39	1.00000e-13
583.92	1.00000e-13
588.45	1.00000e-13
592.97	1.00000e-13
597.50	1.00000e-13
602.03	1.00000e-13
606.55	1.00000e-13
611.08	1.00000e-13
615.61	1.00000e-13
620.14	1.00000e-13
624.66	1.00000e-13
629.19	1.00000e-13
633.71	1.00000e-13
638.24	1.00000e-13
642.77	1.00000e-13
647.29	1.00000e-13
651.82	1.00000e-13
656.34	1.00000e-13
660.87	1.00000e-13
665.40	1.00000e-13
669.92	1.00000e-13
674.45	1.00000e-13
678.98	1.00000e-13
683.50	1.00000e-13
688.03	1.00000e-13
692.56	1.00000e-13
697.08	1.00000e-13
701.61	1.00000e-13
706.14	1.00000e-13
710.66	1.00000e-13
715.19	1.00000e-13
719.72	1.00000e-13
724.24	1.00000e-13
728.77	1.00000e-13
733.30	1.00000e-13
737.82	1.00000e-13
742.35	1.00000e-13
746.88	1.00000e-13
751.40	1.00000e-13
755.93	1.00000e-13
760.45	1.00000e-13
764.98	1.00000e-13
769.51	1.00000e-13
774.03	1.00000e-13
778.56	1.00000e-13
783.09	1.00000e-13
787.61	1.00000e-13
792.14	1.00000e-13
796.67	1.00000e-13
801.19	1.17012e-5
805.72	1.00000e-13
810.25	1.00000e-13
814.77	1.00000e-13
819.30	1.00000e-13
823.83	1.00000e-13
828.35	1.00000e-13
832.88	1.00000e-13
837.41	1.00000e-13
841.93	1.00000e-13
846.46	1.00000e-13
850.98	1.00000e-13
855.51	1.00000e-13
860.04	1.00000e-13
864.57	1.00000e-13
869.09	1.00000e-13
873.62	1.00000e-13
878.15	1.04268e-6
882.67	1.00000e-13
887.20	1.00000e-13
891.73	9.15242e-6
896.25	1.00000e-13
900.78	1.00000e-13
905.30	1.00000e-13
909.83	4.40243e-6
914.35	1.00000e-13
918.88	1.00000e-13
923.41	1.00000e-13
927.94	1.00000e-13
932.46	1.00000e-13
936.99	1.00000e-13
941.52	1.00000e-13
946.04	1.00000e-13
950.57	1.00000e-13
955.09	1.00000e-13
959.62	1.00000e-13
964.15	1.00000e-13
968.67	1.00000e-13
973.20	1.00000e-13
977.73	1.00000e-13
982.25	1.00000e-13
986.78	1.00000e-13
991.31	1.00000e-13
995.83	1.00000e-13
1000.36	1.00000e-13
1004.89	1.00000e-13
1009.41	1.00000e-13
1013.94	1.00000e-13
1018.47	1.00000e-13
1022.99	1.00000e-13
1027.52	1.00000e-13
1032.04	1.00000e-13
1036.57	1.00000e-13
1041.10	1.00000e-13
1045.62	1.00000e-13
1050.15	1.00000e-13
1054.68	1.00000e-13
1059.21	1.00000e-13
1063.73	1.00000e-13
1068.26	1.00000e-13
1072.78	1.00000e-13
1077.31	1.00000e-13
1081.83	1.00000e-13
1086.36	1.00000e-13
1090.89	1.00000e-13
1095.41	1.00000e-13
1099.94	1.00000e-13
1104.47	2.60670e-5
1108.99	3.47560e-6
1113.52	1.00000e-13
1118.05	1.00000e-13
1122.58	1.00000e-13
1127.10	1.00000e-13
1131.63	1.00000e-13
1136.16	1.00000e-13
1140.68	1.00000e-13
1145.21	1.00000e-13
1149.74	1.00000e-13
1154.26	1.00000e-13
1158.79	1.00000e-13
1163.32	1.00000e-13
1167.84	1.00000e-13
1172.37	1.00000e-13
1176.89	1.00000e-13
1181.42	1.00000e-13
1185.95	1.00000e-13
1190.48	1.00000e-13
1195.00	1.00000e-13
1199.53	1.00000e-13
1204.05	1.00000e-13
1208.58	1.00000e-13
1213.11	1.00000e-13
1217.63	1.00000e-13
1222.16	1.00000e-13
1226.69	1.00000e-13
1231.21	1.00000e-13
1235.74	1.00000e-13
1240.27	1.00000e-13
1244.79	1.00000e-13
1249.32	1.15853e-7
1253.84	1.00000e-13
1258.37	1.00000e-13
1262.90	1.00000e-13
1267.42	1.71463e-5
1271.95	6.53414e-5
1276.48	5.05747e-3
1281.00	0.0326236
1285.53	0.0182613
1290.06	1.17128e-3
1294.58	5.14389e-4
1299.11	1.65786e-4
1303.64	1.17939e-4
1308.16	5.37560e-5
1312.69	2.21280e-5
1314.47	1.74939e-5