File: data/TGA/005d-L_M/ExpDat_2025_07_12_SL_PS_250704-P5EDR1-V3+4_isothermal.csv
#EXPORTTYPE:                 ,DATA ALL
#FILE:                       ,2025_07_12_SL_PS_250704-P5EDR1-V3+4_isothermal.ngb-ss5
#FORMAT:                     ,NETZSCH5
#FTYPE:                      ,ASCII
#IDENTITY:                   ,250704-P5EDR1-V3+4
#DECIMAL:                    ,POINT
#SEPARATOR:                  ,COMMA
#MTYPE:                      ,DSC
#INSTRUMENT:                 ,NETZSCH STA 449F5
#PROJECT:                    ,
#DATE/TIME:                  ,7/12/2025 6:49:41 PM (UTC-4)
#CORR. FILE:                 ,
#TEMPCAL:                    ,05-05-2025 14:38
#SENSITIVITY:                ,28-06-2023 13:53
#LABORATORY:                 ,Tran/AAG
#OPERATOR:                   ,Stanley
#REMARK:                     ,2025_03_29_SL_005d_M1_isothermal
#SAMPLE:                     ,250704-P5EDR1-V3+4
#SAMPLE MASS /mg:            ,4.65
#MATERIAL:                   ,Polystyrene
#REFERENCE:                  ,
#REFERENCE MASS /mg:         ,0
#TYPE OF CRUCIBLE:           ,Al2O3 85 ‘l, open
#SAMPLE CRUCIBLE MASS /mg:   ,0
#REFERENCE CRUCIBLE MASS /mg:,0
#DSC RANGE /‘V:              ,5000
#TG RANGE /mg:               ,35000
#TAU-R:                      ,---
#CORR. CODE:                 ,000
#EXO:                        ,-1
#RANGE:                      ,30›C....800›C/0.0....20.0K/min
#SEGMENT:                    ,S1-5/5
#SEG. 1:                     ,30›C/10.0(K/min)/100›C
#SEG. 2:                     ,100›C/00:10/100›C
#SEG. 3:                     ,100›C/5.0(K/min)/300›C
#SEG. 4:                     ,300›C/20:00/300›C
#SEG. 5:                     ,300›C/20.0(K/min)/800›C

##Temp./›C,Time/min,DSC/(mW/mg),Mass/%,Gas Flow(purge2)/(ml/min),Gas Flow(protective)/(ml/min),TIC(scan:1)/A,Sensit./(uV/mW),Segment
 39.51800,   0.00000,      1.10024,    100,50.00000,53.00000,            ,0.92502,1
 75.61300,   6.44000,      3.30514,     95.30430,50.00000,52.00000,2.554982e-09,0.92542,1
102.909,   9.92083,      1.79462,     93.06108,50.00000,53.00000,2.550299e-09,0.92565,2
109.135,  13.14083,      0.27026,     90.72538,50.00000,53.00000,2.546862e-09,0.92589,2
107.222,  16.36083,     -0.36221,     89.14409,50.00000,53.00000,2.548228e-09,0.92611,2
118.29,  22.20083,      1.88357,     91.29226,50.00000,53.00000,2.539766e-09,0.92609,3
154.977,  28.64083,      2.80360,     92.17054,50.00000,53.00000,2.531475e-09,0.92463,3
189.43,  35.08083,      2.70327,     91.87140,50.00000,53.00000,2.533465e-09,0.92325,3
221.66,  41.52083,      2.69911,     91.04172,50.00000,53.00000,2.533973e-09,0.92198,3
253.685,  47.96083,      2.67850,     89.38731,50.00000,53.00000,2.524612e-09,0.92095,3
285.762,  54.40083,      2.55489,     87.02000,50.00000,53.00000,2.520060e-09,0.92010,3
301.324,  66.66083,     -0.89388,     80.48731,50.00000,53.00000,2.516588e-09,0.91893,4
300.031,  82.76083,     -0.75036,     77.11290,50.00000,53.00000,2.512326e-09,0.91853,4
300,  98.86083,     -0.75304,     75.29290,50.00000,53.00000,2.503312e-09,0.91886,4
300.005, 114.961,     -0.75429,     74.11548,50.00000,53.00000,2.504498e-09,0.91944,4
300.023, 131.061,     -0.76244,     73.24194,50.00000,53.00000,2.498782e-09,0.91598,4
300.012, 147.161,     -0.76389,     72.52172,50.00000,53.00000,2.493527e-09,0.90739,4
300.009, 163.261,     -0.76451,     71.88688,50.00000,53.00000,2.491295e-09,0.89587,4
300.006, 179.361,     -0.76305,     71.30774,50.00000,53.00000,2.487210e-09,0.88325,4
300.029, 195.461,     -0.76578,     70.74323,50.00000,53.00000,2.480806e-09,0.86970,4
300.02, 211.561,     -0.76494,     70.22022,50.00000,53.00000,2.474335e-09,0.85492,4
300.017, 227.661,     -0.76994,     69.71656,50.00000,53.00000,2.470536e-09,0.83920,4
300.025, 243.761,     -0.76890,     69.21548,50.00000,53.00000,2.470092e-09,0.82252,4
300.016, 259.861,     -0.77139,     68.71656,50.00000,53.00000,2.472559e-09,0.80509,4
300.015, 275.961,     -0.76847,     68.25183,50.00000,53.00000,2.470181e-09,0.78564,4
300.028, 292.061,     -0.77078,     67.78473,50.00000,53.00000,2.461873e-09,0.78622,4
300.013, 308.161,     -0.77077,     67.29570,50.00000,53.00000,2.469063e-09,0.78712,4
300.015, 324.261,     -0.77139,     66.85785,50.00000,53.00000,2.467507e-09,0.78719,4
300.005, 340.361,     -0.77201,     66.35419,50.00000,53.00000,2.460515e-09,0.78719,4
300.012, 356.461,     -0.77410,     65.91140,50.00000,53.00000,2.458309e-09,0.78720,4
300.021, 372.561,     -0.77536,     65.43935,50.00000,53.00000,2.456129e-09,0.78719,4
300.009, 388.661,     -0.77451,     64.99419,50.00000,53.00000,2.454554e-09,0.78718,4
300.026, 404.761,     -0.77515,     64.53441,50.00000,53.00000,2.446937e-09,0.78719,4
300.014, 420.861,     -0.77973,     64.05505,50.00000,53.00000,2.437875e-09,0.78719,4
300.024, 436.961,     -0.77474,     63.61226,50.00000,53.00000,2.435327e-09,0.78719,4
300.019, 453.061,     -0.77890,     63.14753,50.00000,53.00000,2.437934e-09,0.78719,4
300.02, 469.161,     -0.77869,     62.69247,50.00000,53.00000,2.433533e-09,0.78719,4
300.009, 485.261,     -0.77889,     62.22538,50.00000,53.00000,2.429913e-09,0.78719,4
300.02, 501.361,     -0.78057,     61.76559,50.00000,53.00000,2.422067e-09,0.78719,4
300.029, 517.461,     -0.78266,     61.30581,50.00000,53.00000,2.421006e-09,0.78719,4
300.014, 533.561,     -0.77910,     60.87032,50.00000,53.00000,2.415900e-09,0.78719,4
300.014, 549.661,     -0.78515,     60.43484,50.00000,53.00000,2.420204e-09,0.78719,4
300.007, 565.761,     -0.78827,     59.96753,50.00000,53.00000,2.420620e-09,0.78719,4
300.016, 581.861,     -0.78432,     59.53699,50.00000,53.00000,2.412417e-09,0.78718,4
300.02, 597.961,     -0.78953,     59.04796,50.00000,53.00000,2.410953e-09,0.78719,4
300.015, 614.061,     -0.78640,     58.60022,50.00000,53.00000,2.411140e-09,0.78718,4
300.008, 630.161,     -0.78723,     58.17441,50.00000,53.00000,2.405847e-09,0.78720,4
300.009, 646.261,     -0.78973,     57.66602,50.00000,53.00000,2.397668e-09,0.78720,4
300.013, 662.361,     -0.78807,     57.22086,50.00000,53.00000,2.399767e-09,0.78719,4
300.011, 678.461,     -0.79182,     56.74624,50.00000,53.00000,2.397229e-09,0.78720,4
300.018, 694.561,     -0.79370,     56.32301,50.00000,53.00000,2.390781e-09,0.78720,4
300.012, 710.661,     -0.79140,     55.85591,50.00000,53.00000,2.385588e-09,0.78720,4
300.019, 726.761,     -0.79537,     55.41785,50.00000,53.00000,2.389119e-09,0.78720,4
300.026, 742.861,     -0.79704,     54.93871,50.00000,53.00000,2.380881e-09,0.78720,4
300.003, 758.961,     -0.79493,     54.50796,50.00000,53.00000,2.377128e-09,0.78718,4
300.011, 775.061,     -0.79661,     54.01892,50.00000,53.00000,2.377566e-09,0.78718,4
300.011, 791.161,     -0.80119,     53.55914,50.00000,53.00000,2.369734e-09,0.78719,4
300.012, 807.261,     -0.79619,     53.09935,50.00000,53.00000,2.371689e-09,0.78718,4
300.035, 823.361,     -0.79767,     52.65161,50.00000,53.00000,2.368810e-09,0.78719,4
300.023, 839.461,     -0.79600,     52.19914,50.00000,53.00000,2.360858e-09,0.78718,4
300.023, 855.561,     -0.80329,     51.71011,50.00000,53.00000,2.365957e-09,0.78720,4
300.023, 871.661,     -0.80162,     51.25011,50.00000,53.00000,2.359556e-09,0.78719,4
300.022, 887.761,     -0.80412,     50.75140,50.00000,53.00000,2.360773e-09,0.78718,4
300.012, 903.861,     -0.80265,     50.31828,50.00000,53.00000,2.352278e-09,0.78719,4
300.028, 919.961,     -0.80017,     49.86581,50.00000,53.00000,2.343754e-09,0.78720,4
300.014, 936.061,     -0.80432,     49.42796,50.00000,53.00000,2.343095e-09,0.78719,4
300.008, 952.161,     -0.80432,     48.91935,50.00000,53.00000,2.340648e-09,0.78719,4
300.023, 968.261,     -0.80371,     48.47419,50.00000,53.00000,2.340325e-09,0.78719,4
300.008, 984.361,     -0.81099,     48.01183,50.00000,53.00000,2.340105e-09,0.78719,4
300.016,1000.46,     -0.81120,     47.56430,50.00000,53.00000,2.330615e-09,0.78720,4
300.018,1016.56,     -0.81100,     47.10194,50.00000,53.00000,2.334481e-09,0.78719,4
300.015,1032.66,     -0.81308,     46.65914,50.00000,53.00000,2.331307e-09,0.78718,4
300.016,1048.76,     -0.80787,     46.24559,50.00000,53.00000,2.328511e-09,0.78720,4
300.01,1064.86,     -0.81287,     45.76129,50.00000,53.00000,2.316775e-09,0.78720,4
300.015,1080.96,     -0.81224,     45.31376,50.00000,53.00000,2.321657e-09,0.78719,4
300.018,1097.06,     -0.81246,     44.85871,50.00000,53.00000,2.319767e-09,0.78719,4
300.008,1113.16,     -0.81411,     44.36237,50.00000,53.00000,2.320338e-09,0.78718,4
300.012,1129.26,     -0.81370,     43.90022,50.00000,54.00000,2.317444e-09,0.78720,4
300.018,1145.36,     -0.81371,     43.44280,50.00000,54.00000,2.313411e-09,0.78719,4
300.01,1161.46,     -0.81391,     43.00237,50.00000,54.00000,2.311383e-09,0.78718,4
300.012,1177.56,     -0.81453,     42.54258,50.00000,54.00000,2.314342e-09,0.78717,4
300.02,1193.66,     -0.81350,     42.08753,50.00000,54.00000,2.313026e-09,0.78719,4
300.014,1209.76,     -0.81620,     41.62043,50.00000,54.00000,2.312279e-09,0.78719,4
300.018,1225.86,     -0.81600,     41.16065,50.00000,54.00000,2.316434e-09,0.78719,4
300.027,1241.96,     -0.81663,     40.73247,50.00000,54.00000,2.312377e-09,0.78719,4
300.027,1257.02,     -0.81580,     40.30667,50.00000,54.00000,2.304508e-09,0.78718,5
305.179,1257.82,      3.60918,     41.47204,50.00000,54.00000,2.303899e-09,0.78719,5
319.179,1258.63,      8.98917,     42.54989,50.00000,54.00000,2.306545e-09,0.78719,5
332.842,1259.43,      9.50566,     42.69591,50.00000,54.00000,2.311336e-09,0.78720,5
348.052,1260.24,     11.09841,     43.05097,50.00000,54.00000,2.307489e-09,0.78718,5
365.309,1261.04,     12.58862,     43.07785,50.00000,54.00000,2.307922e-09,0.78719,5
382.695,1261.85,     13.00007,     42.41118,50.00000,54.00000,2.308324e-09,0.78719,5
400.247,1262.65,     13.51667,     40.04387,50.00000,54.00000,2.306441e-09,0.78719,5
417.793,1263.46,     14.21673,     33.58194,50.00000,54.00000,2.308304e-09,0.78719,5
435.088,1264.26,     15.08398,     20.06172,50.00000,54.00000,2.303879e-09,0.78719,5
452.239,1265.07,     14.70808,      5.58538,50.00000,54.00000,2.305767e-09,0.78719,5
469.213,1265.87,     13.02573,     -0.51892,50.00000,54.00000,2.306934e-09,0.78719,5
485.996,1266.68,     12.00668,     -1.66968,50.00000,54.00000,2.301637e-09,0.78719,5
502.591,1267.48,     11.32952,     -1.70624,50.00000,54.00000,2.308295e-09,0.78718,5
519.061,1268.29,     10.73285,     -1.61849,50.00000,54.00000,2.306059e-09,0.78718,5
535.415,1269.09,     10.13874,     -1.47269,50.00000,54.00000,2.306437e-09,0.78719,5
551.731,1269.9,      9.56379,     -1.32667,50.00000,54.00000,2.308981e-09,0.78718,5
568.005,1270.7,      8.95592,     -1.15140,50.00000,54.00000,2.305394e-09,0.78719,5
584.239,1271.51,      8.34694,     -1.03462,50.00000,54.00000,2.303631e-09,0.78719,5
600.457,1272.31,      7.73142,     -0.88860,50.00000,54.00000,2.303949e-09,0.78719,5
616.665,1273.12,      7.12873,     -0.74280,50.00000,54.00000,2.302982e-09,0.78720,5
632.841,1273.92,      6.49715,     -0.59441,50.00000,54.00000,2.309944e-09,0.78720,5
649.026,1274.73,      5.92701,     -0.50667,50.00000,54.00000,2.311554e-09,0.78718,5
665.192,1275.53,      5.34338,     -0.36065,50.00000,54.00000,2.309595e-09,0.78719,5
681.352,1276.34,      4.76557,     -0.27312,50.00000,54.00000,2.305984e-09,0.78720,5
697.528,1277.14,      4.16385,     -0.15634,50.00000,54.00000,2.306554e-09,0.78720,5
713.722,1277.95,      3.50161,-6.881720e-02,50.00000,54.00000,2.305949e-09,0.78719,5
729.891,1278.75,      2.75927, 4.301075e-03,50.00000,54.00000,2.310977e-09,0.78720,5
746.111,1279.56,      2.00562,      0.12108,50.00000,54.00000,2.312394e-09,0.78719,5
762.316,1280.36,      1.22670,      0.20129,50.00000,54.00000,2.303092e-09,0.78720,5
778.492,1281.17,      0.46776,      0.28882,50.00000,54.00000,2.306856e-09,0.78719,5
794.487,1281.96,     -0.24587,      0.35462,50.00000,54.00000,            ,0.44710,5