File: data/TGA/005d-L_M/ExpDat_2025_07_13_SL_PS_250704-P5EDR1-V3+4_dynamic.csv
#EXPORTTYPE:                 ,DATA ALL
#FILE:                       ,2025_07_13_SL_PS_250704-P5EDR1-V3+4_dynamic.ngb-ss5
#FORMAT:                     ,NETZSCH5
#FTYPE:                      ,ASCII
#IDENTITY:                   ,250704-P5EDR1-V3+4
#DECIMAL:                    ,POINT
#SEPARATOR:                  ,COMMA
#MTYPE:                      ,DSC
#INSTRUMENT:                 ,NETZSCH STA 449F5
#PROJECT:                    ,
#DATE/TIME:                  ,7/13/2025 4:54:32 PM (UTC-4)
#CORR. FILE:                 ,
#TEMPCAL:                    ,05-05-2025 14:38
#SENSITIVITY:                ,28-06-2023 13:53
#LABORATORY:                 ,Tran/AAG
#OPERATOR:                   ,Stanley
#REMARK:                     ,2025_03_20_Styrofoam_dynamic
#SAMPLE:                     ,250704-P5EDR1-V3+4
#SAMPLE MASS /mg:            ,5.74
#MATERIAL:                   ,Polystyrene
#REFERENCE:                  ,
#REFERENCE MASS /mg:         ,0
#TYPE OF CRUCIBLE:           ,Al2O3 85 ‘l, open
#SAMPLE CRUCIBLE MASS /mg:   ,0
#REFERENCE CRUCIBLE MASS /mg:,0
#DSC RANGE /‘V:              ,5000
#TG RANGE /mg:               ,35000
#TAU-R:                      ,---
#CORR. CODE:                 ,000
#EXO:                        ,-1
#RANGE:                      ,20›C....800›C/0.0....20.0K/min
#SEGMENT:                    ,S1-4/4
#SEG. 1:                     ,20›C/5.0(K/min)/100›C
#SEG. 2:                     ,100›C/00:05/100›C
#SEG. 3:                     ,100›C/1.0(K/min)/400›C
#SEG. 4:                     ,400›C/20.0(K/min)/800›C

##Temp./›C,Time/min,DSC/(mW/mg),Mass/%,Gas Flow(purge2)/(ml/min),Gas Flow(protective)/(ml/min),TIC(scan:1)/A,Sensit./(uV/mW),Segment
 56.95500,  0.00000,      2.93877,    100,50.00000,56.00000,            ,0.92619,1
 73.62200,  5.06667,     -0.34410,     86.78467,50.00000,54.00000,2.316681e-09,0.92567,1
 64.96000, 10.13333,     -0.60984,     84.90052,50.00000,54.00000,2.312941e-09,0.92545,1
 77.99800, 15.20000,      1.26327,     88.75958,50.00000,54.00000,2.315358e-09,0.92565,1
 98.47000, 19.18333,      0.84432,     88.46394,50.00000,54.00000,2.317785e-09,0.92585,2
105.514, 23.66667,      0.15842,     87.29129,50.00000,54.00000,2.311378e-09,0.92604,3
108.505, 28.73333,      0.11574,     86.99355,50.00000,54.00000,2.316033e-09,0.92611,3
112.48, 33.80000,      0.20890,     87.01725,50.00000,54.00000,2.308248e-09,0.92580,3
117.408, 38.86667,      0.26369,     86.99948,50.00000,54.00000,2.311220e-09,0.92456,3
122.566, 43.93333,      0.29112,     86.95226,50.00000,55.00000,2.304522e-09,0.92295,3
127.707, 49.00000,      0.31171,     86.91080,50.00000,55.00000,2.304530e-09,0.92160,3
132.769, 54.06667,      0.33798,     86.86951,50.00000,55.00000,2.307199e-09,0.92058,3
137.857, 59.13333,      0.36428,     86.85174,50.00000,55.00000,2.295122e-09,0.91989,3
142.92, 64.20000,      0.39341,     86.82805,50.00000,55.00000,2.298869e-09,0.91944,3
147.992, 69.26667,      0.42127,     86.81028,50.00000,55.00000,2.294407e-09,0.91911,3
153.059, 74.33333,      0.45007,     86.79251,50.00000,55.00000,2.297377e-09,0.91875,3
158.126, 79.40000,      0.47941,     86.78659,50.00000,55.00000,2.294929e-09,0.91833,3
163.2, 84.46667,      0.50883,     86.77282,50.00000,55.00000,2.289904e-09,0.91783,3
168.267, 89.53333,      0.53866,     86.75505,50.00000,55.00000,2.295178e-09,0.91724,3
173.329, 94.60000,      0.56801,     86.67439,50.00000,55.00000,2.294914e-09,0.91659,3
178.399, 99.66667,      0.60153,     86.58554,50.00000,55.00000,2.294578e-09,0.91589,3
183.466,104.733,      0.63310,     86.46150,50.00000,55.00000,2.288621e-09,0.91516,3
188.532,109.8,      0.67027,     86.27021,50.00000,55.00000,2.292305e-09,0.91440,3
193.602,114.867,      0.70128,     86.06916,50.00000,55.00000,2.289826e-09,0.91362,3
198.673,119.933,      0.74130,     85.79129,50.00000,55.00000,2.283395e-09,0.91282,3
203.749,125,      0.77820,     85.52526,50.00000,55.00000,2.284664e-09,0.91200,3
208.802,130.067,      0.81410,     85.20993,50.00000,55.00000,2.285556e-09,0.91117,3
213.871,135.133,      0.85333,     84.81969,50.00000,55.00000,2.287404e-09,0.91032,3
218.928,140.2,      0.88725,     84.45296,50.00000,55.00000,2.280596e-09,0.90944,3
224.007,145.267,      0.92267,     84.04704,50.00000,55.00000,2.273337e-09,0.90855,3
229.058,150.333,      0.95628,     83.64495,50.00000,55.00000,2.275879e-09,0.90762,3
234.128,155.4,      0.98717,     83.26847,50.00000,55.00000,2.275043e-09,0.90669,3
239.191,160.467,      1.02065,     82.89599,50.00000,55.00000,2.271773e-09,0.90572,3
244.259,165.533,      1.05390,     82.51167,50.00000,55.00000,2.263259e-09,0.90473,3
249.319,170.6,      1.09124,     82.16272,50.00000,55.00000,2.264308e-09,0.90373,3
254.38,175.667,      1.12728,     81.78432,50.00000,55.00000,2.262307e-09,0.90272,3
259.468,180.733,      1.16154,     81.37631,50.00000,55.00000,2.257733e-09,0.90170,3
264.52,185.8,      1.19913,     80.96045,50.00000,55.00000,2.255923e-09,0.90065,3
269.59,190.867,      1.23460,     80.53275,50.00000,55.00000,2.258704e-09,0.89955,3
274.649,195.933,      1.27397,     80.08136,50.00000,56.00000,2.250356e-09,0.89845,3
279.699,201,      1.31236,     79.61429,50.00000,56.00000,2.252611e-09,0.89734,3
284.778,206.067,      1.34962,     79.16498,50.00000,56.00000,2.245328e-09,0.89620,3
289.841,211.133,      1.38452,     78.69181,50.00000,56.00000,2.248800e-09,0.89504,3
294.905,216.2,      1.42308,     78.21882,50.00000,56.00000,2.244131e-09,0.89387,3
299.965,221.267,      1.45927,     77.70244,50.00000,56.00000,2.239851e-09,0.89270,3
305.044,226.333,      1.49955,     77.20383,50.00000,56.00000,2.236767e-09,0.89150,3
310.103,231.4,      1.54101,     76.70714,50.00000,56.00000,2.234462e-09,0.89026,3
315.171,236.467,      1.57822,     76.16115,50.00000,56.00000,2.236261e-09,0.88902,3
320.246,241.533,      1.61404,     75.55209,50.00000,56.00000,2.241171e-09,0.88775,3
325.311,246.6,      1.65224,     74.86812,50.00000,56.00000,2.239240e-09,0.88647,3
330.377,251.667,      1.69025,     74.08571,50.00000,56.00000,2.233108e-09,0.88518,3
335.441,256.733,      1.73229,     73.10819,50.00000,56.00000,2.232690e-09,0.88384,3
340.494,261.8,      1.76882,     71.88223,50.00000,56.00000,2.227750e-09,0.88253,3
345.569,266.867,      1.81499,     70.20296,50.00000,56.00000,2.226616e-09,0.88118,3
350.633,271.933,      1.86876,     67.93815,50.00000,56.00000,2.226790e-09,0.87980,3
355.706,277,      1.91908,     64.75906,50.00000,56.00000,2.222769e-09,0.87843,3
360.766,282.067,      1.98369,     60.30470,50.00000,56.00000,2.219795e-09,0.87707,3
365.824,287.133,      2.06491,     53.96010,50.00000,56.00000,2.216538e-09,0.87566,3
370.893,292.2,      2.14224,     45.80610,50.00000,56.00000,2.216390e-09,0.87423,3
375.965,297.267,      2.18916,     35.78763,50.00000,56.00000,2.215242e-09,0.87278,3
381.025,302.333,      2.17265,     24.64774,50.00000,56.00000,2.212789e-09,0.87132,3
386.097,307.4,      2.09975,     13.81533,50.00000,56.00000,2.212008e-09,0.86985,3
391.17,312.467,      1.95715,      5.20418,50.00000,56.00000,2.218796e-09,0.86835,3
396.227,317.533,      1.79705,     -0.38171,50.00000,56.00000,2.213756e-09,0.86685,3
399.786,321.058,      1.69780,     -2.71725,50.00000,56.00000,2.206805e-09,0.86583,4
402.123,321.438,      3.55119,     -2.64826,50.00000,56.00000,2.209118e-09,0.86568,4
408.089,321.818,      7.08090,     -2.38223,50.00000,56.00000,2.205617e-09,0.86558,4
415.725,322.198,      9.47395,     -2.31115,50.00000,56.00000,2.207330e-09,0.86549,4
422.92,322.578,      9.86946,     -2.50836,50.00000,56.00000,2.211303e-09,0.86534,4
429.309,322.958,      9.45512,     -2.82962,50.00000,56.00000,2.208387e-09,0.86524,4
435.697,323.338,      9.44920,     -3.13118,50.00000,56.00000,2.208772e-09,0.86514,4
442.677,323.718,     10.06098,     -3.36568,50.00000,56.00000,2.205503e-09,0.86505,4
450.278,324.098,     10.81341,     -3.62787,50.00000,56.00000,2.210950e-09,0.86489,4
458.142,324.478,     11.28961,     -3.89983,50.00000,56.00000,2.207671e-09,0.86480,4
465.975,324.858,     11.46375,     -4.13240,50.00000,56.00000,2.211632e-09,0.86470,4
473.803,325.238,     11.53367,     -4.22700,50.00000,56.00000,2.210100e-09,0.86454,4
481.682,325.618,     11.63339,     -4.28014,50.00000,56.00000,2.211777e-09,0.86445,4
489.629,325.998,     11.76549,     -4.27230,50.00000,56.00000,2.207659e-09,0.86436,4
497.615,326.378,     11.87360,     -4.22300,50.00000,56.00000,2.209162e-09,0.86420,4
505.603,326.758,     11.93131,     -4.17578,50.00000,56.00000,2.209088e-09,0.86410,4
513.562,327.138,     11.95682,     -4.15209,50.00000,56.00000,2.208591e-09,0.86400,4
521.506,327.518,     11.97433,     -4.05749,50.00000,56.00000,2.211736e-09,0.86386,4
529.428,327.898,     11.98596,     -4.03380,50.00000,56.00000,2.210924e-09,0.86376,4
537.332,328.278,     11.99092,     -3.93920,50.00000,56.00000,2.209591e-09,0.86367,4
545.208,328.658,     11.99422,     -3.89199,50.00000,56.00000,2.209373e-09,0.86351,4
553.086,329.038,     12.00210,     -3.82091,50.00000,56.00000,2.207840e-09,0.86341,4
560.939,329.418,     11.99236,     -3.77369,50.00000,56.00000,2.209863e-09,0.86331,4
568.782,329.798,     11.97834,     -3.72631,50.00000,56.00000,2.208449e-09,0.86316,4
576.582,330.178,     11.97132,     -3.67909,50.00000,56.00000,2.206337e-09,0.86306,4
584.381,330.558,     11.96630,     -3.60819,50.00000,56.00000,2.208796e-09,0.86296,4
592.17,330.938,     11.96694,     -3.53711,50.00000,56.00000,2.208837e-09,0.86281,4
599.951,331.318,     11.96630,     -3.48990,50.00000,56.00000,2.210181e-09,0.86271,4
607.711,331.698,     11.96674,     -3.45436,50.00000,56.00000,2.207419e-09,0.86261,4
615.457,332.078,     11.96669,     -3.37944,50.00000,56.00000,2.201622e-09,0.86251,4
623.184,332.458,     11.97477,     -3.33223,50.00000,56.00000,2.209684e-09,0.86236,4
630.899,332.838,     11.98522,     -3.28101,50.00000,56.00000,2.209602e-09,0.86227,4
638.611,333.218,     12.00059,     -3.23362,50.00000,56.00000,2.210129e-09,0.86216,4
646.315,333.598,     12.02129,     -3.16063,50.00000,56.00000,2.212436e-09,0.86201,4
654.017,333.978,     12.04000,     -3.13711,50.00000,56.00000,2.209330e-09,0.86190,4
661.696,334.358,     12.05731,     -3.08972,50.00000,56.00000,2.210128e-09,0.86181,4
669.389,334.738,     12.06256,     -3.04251,50.00000,56.00000,2.200552e-09,0.86166,4
677.049,335.118,     12.05424,     -2.99512,50.00000,56.00000,2.207594e-09,0.86157,4
684.747,335.498,     12.03375,     -2.94791,50.00000,56.00000,2.206463e-09,0.86146,4
692.424,335.878,     11.98889,     -2.92422,50.00000,56.00000,2.206201e-09,0.86131,4
700.097,336.258,     11.92024,     -2.90052,50.00000,56.00000,2.206110e-09,0.86120,4
707.771,336.638,     11.82638,     -2.85906,50.00000,56.00000,2.204790e-09,0.86110,4
715.448,337.018,     11.71773,     -2.81185,50.00000,56.00000,2.206939e-09,0.86095,4
723.117,337.398,     11.59317,     -2.78815,50.00000,56.00000,2.206803e-09,0.86085,4
730.792,337.778,     11.47483,     -2.76446,50.00000,56.00000,2.211626e-09,0.86075,4
738.45,338.158,     11.33929,     -2.71725,50.00000,56.00000,2.208748e-09,0.86065,4
746.118,338.538,     11.18829,     -2.66986,50.00000,56.00000,2.206967e-09,0.86050,4
753.776,338.918,     11.02663,     -2.66986,50.00000,56.00000,2.203525e-09,0.86039,4
761.441,339.298,     10.85264,     -2.59704,50.00000,56.00000,2.213538e-09,0.86029,4
769.105,339.678,     10.66612,     -2.57735,50.00000,56.00000,2.206529e-09,0.86014,4
776.74,340.058,     10.47341,     -2.55366,50.00000,56.00000,2.207438e-09,0.86003,4
784.394,340.438,     10.27908,     -2.50627,50.00000,56.00000,2.205291e-09,0.85995,4
792.05,340.818,     10.07830,     -2.48275,50.00000,56.00000,            ,0.44807,4
794.358,340.933,     10.01922,     -2.48275,50.00000,56.00000,            ,0.44715,4