File: data/TGA/005d-L_M/F1.txt
Filename	F1
Instrument name
Operator	Gwenael
rundate	2025-02-10
Sample name	F1
[step]
Step 1
Time	Temperature	Weight	Weight	Deriv. Weight
min	°C	mg	%	% / °C
0,02	24,96	4,512	100,034	3,45284e-3
4,71	39,60	4,522	100,272	2,02289e-3
9,46	62,58	4,523	100,294	5,54392e-4
14,21	86,05	4,524	100,304	-2,24516e-3
18,96	102,92	4,518	100,174	-6,31209e-3
23,71	100,80	4,515	100,105	-2,08313e-3
28,46	108,71	4,517	100,147	8,10758e-4
33,21	131,45	4,516	100,143	-2,29834e-4
37,96	155,27	4,516	100,138	-5,22669e-4
42,71	179,15	4,517	100,153	-1,24136e-3
47,46	202,92	4,513	100,072	-1,75714e-3
52,21	226,69	4,511	100,015	-2,18779e-3
56,96	250,48	4,509	99,977	-2,00794e-3
61,71	274,27	4,507	99,931	-3,33679e-3
66,46	297,56	4,503	99,841	-7,04695e-3
71,21	301,58	4,495	99,672	-0,0174381
75,96	299,69	4,489	99,534	0,147866
80,71	299,98	4,482	99,372	0,0598857
85,46	300,04	4,475	99,227	-0,779187
90,21	299,98	4,467	99,052	4,09647
94,96	300,00	4,460	98,901	-7,67791
99,71	300,00	4,451	98,699	-3,84352
104,46	300,00	4,444	98,533	35,7462
109,21	300,00	4,435	98,347	-94,4081
113,96	300,00	4,427	98,159	-15,2565
118,71	300,00	4,418	97,966	91,2276
123,46	300,00	4,409	97,769	36,1248
128,21	300,00	4,401	97,574	48,6497
132,96	300,00	4,392	97,385	5,25140
137,71	300,00	4,383	97,194	17,2954
142,46	300,00	4,374	96,991	-34,2762
147,21	300,00	4,366	96,808	-36,6619
151,96	300,00	4,358	96,625	57,0969
156,71	300,00	4,349	96,430	34,1616
161,46	300,00	4,341	96,245	-60,4374
166,21	300,00	4,332	96,062	13,4988
170,96	300,00	4,324	95,880	11,9224
175,71	300,00	4,316	95,699	-4,89414
180,46	300,00	4,308	95,516	-31,8036
185,21	300,00	4,300	95,341	-14,8430
189,96	300,00	4,292	95,175	35,1939
194,71	300,00	4,285	95,002	45,3427
199,46	300,00	4,277	94,834	-2,44741
204,21	300,00	4,270	94,671	-67,2211
208,96	300,00	4,262	94,501	-48,3743
213,71	300,00	4,255	94,340	50,3294
218,46	300,00	4,248	94,181	37,4539
223,21	300,00	4,241	94,034	69,9303
227,96	300,00	4,234	93,876	-30,5283
232,71	300,00	4,227	93,728	-5,76627
237,46	300,00	4,220	93,575	5,53106
242,21	300,00	4,214	93,429	58,4201
246,96	300,00	4,207	93,290	-61,8389
251,71	300,00	4,200	93,136	-55,4662
256,46	300,00	4,195	93,007	-62,3026
261,21	300,00	4,188	92,870	32,4868
265,96	300,00	4,182	92,736	14,0232
270,71	300,00	4,176	92,596	28,7878
275,46	300,00	4,170	92,467	15,8859
280,21	300,00	4,164	92,330	41,0268
284,96	300,00	4,158	92,198	-49,6604
289,71	300,00	4,152	92,062	-26,8209
294,46	300,00	4,147	91,949	18,3698
299,21	300,00	4,141	91,821	0,596701
303,96	300,00	4,136	91,708	6,42034
308,71	300,00	4,130	91,585	15,2847
313,46	300,00	4,125	91,466	21,0484
318,21	300,00	4,120	91,361	-12,8678
322,96	300,00	4,115	91,237	14,4887
327,71	300,00	4,110	91,124	-23,4944
332,46	300,00	4,105	91,012	39,2119
337,21	300,00	4,099	90,895	7,51461
341,96	300,00	4,094	90,771	-41,6977
346,71	300,00	4,089	90,676	3,18547
351,46	300,00	4,084	90,564	-4,29374
356,21	300,00	4,080	90,457	-6,74236
360,96	300,00	4,075	90,356	-35,1834
365,71	300,00	4,070	90,254	-15,2037
370,46	300,00	4,066	90,147	25,0502
375,21	300,00	4,061	90,043	26,8494
379,96	300,00	4,056	89,937	-22,8471
384,71	300,00	4,052	89,841	-19,5468
389,46	300,00	4,047	89,736	-14,4449
394,21	300,00	4,043	89,643	9,14582
398,96	300,00	4,038	89,544	20,0099
403,71	300,00	4,034	89,449	21,1412
408,46	300,00	4,030	89,360	-3,36830
413,21	300,00	4,025	89,255	-24,5117
417,96	300,00	4,021	89,167	1,52329
422,71	300,00	4,017	89,076	26,0074
427,46	300,00	4,013	88,981	39,4137
432,21	300,00	4,008	88,879	-42,1018
436,96	300,00	4,005	88,796	-15,3531
441,71	300,00	4,001	88,708	-1,44093
446,46	300,00	3,996	88,612	4,38495
451,21	300,00	3,992	88,521	0,0617709
455,96	300,00	3,988	88,432	30,3203
460,71	300,00	3,984	88,341	24,0602
465,46	300,00	3,980	88,249	-35,6861
470,21	300,00	3,976	88,167	-36,6878
474,96	300,00	3,972	88,075	17,1212
479,71	300,00	3,968	87,989	37,3052
484,46	300,00	3,964	87,896	-2,46499
489,21	300,00	3,960	87,807	-33,6648
493,96	300,00	3,956	87,725	2,27765
498,71	300,00	3,953	87,639	50,2975
503,46	300,00	3,948	87,548	15,4740
508,21	300,00	3,945	87,463	-45,4112
512,96	300,00	3,941	87,382	-33,0275
517,71	300,00	3,937	87,298	31,8021
522,46	300,00	3,933	87,211	-25,7844
527,21	300,00	3,930	87,130	-2,53669
531,96	300,00	3,926	87,049	16,0334
536,71	300,00	3,922	86,961	12,1404
541,46	300,00	3,919	86,888	1,45943
546,21	300,00	3,915	86,817	5,86951
550,96	300,00	3,912	86,730	-28,3546
555,71	300,00	3,908	86,658	-1,13999
560,46	300,00	3,905	86,581	51,4059
565,21	300,00	3,901	86,504	4,81194
569,96	300,00	3,898	86,428	-28,6316
574,71	300,00	3,894	86,347	-23,9062
579,46	300,00	3,891	86,284	-2,64733
584,21	300,00	3,888	86,217	24,7571
588,96	300,00	3,885	86,143	24,4027
593,71	300,00	3,882	86,070	-19,0393
598,46	300,00	3,879	86,000	-24,9760
603,21	300,00	3,875	85,923	-13,4558
607,96	300,00	3,872	85,855	5,37279
612,71	300,00	3,869	85,778	15,6774
617,46	300,00	3,866	85,719	25,4458
622,21	300,00	3,862	85,640	49,8425
626,96	300,00	3,859	85,558	-20,4016
631,71	300,00	3,856	85,499	4,79782
636,46	300,00	3,853	85,443	4,29057
641,21	300,00	3,849	85,350	-3,11844
645,96	300,00	3,847	85,288	1,17880
650,71	300,00	3,843	85,211	16,8393
655,46	300,00	3,840	85,142	-19,2443
660,21	300,00	3,837	85,082	4,30249
664,96	300,00	3,834	85,014	3,24339
669,71	300,00	3,830	84,933	-26,8948
674,46	300,00	3,827	84,859	-9,24988
679,21	300,00	3,824	84,786	13,8887
683,96	300,00	3,821	84,727	2,90081
688,71	300,00	3,818	84,647	-26,1282
693,46	300,00	3,815	84,590	4,85266
698,21	300,00	3,812	84,521	37,6791
702,96	300,00	3,809	84,452	-6,73114
707,71	300,00	3,806	84,379	-30,0496
712,46	300,00	3,802	84,312	-43,9506
717,21	300,00	3,799	84,245	8,45305
721,96	300,00	3,796	84,175	25,4751
726,71	300,00	3,793	84,113	25,0514
731,46	300,00	3,790	84,046	-23,1434
736,21	300,00	3,788	83,982	0,591593
740,96	300,00	3,785	83,915	10,8611
745,71	300,00	3,782	83,847	1,12785
750,46	300,00	3,779	83,789	-4,09747
755,21	300,00	3,776	83,718	-11,5366
759,96	300,00	3,773	83,651	12,4873
764,71	300,00	3,770	83,586	-4,97791
769,46	300,00	3,767	83,525	25,0399
774,21	300,00	3,764	83,455	6,36571
778,96	300,00	3,761	83,387	-18,9497
783,71	300,00	3,758	83,335	-34,4956
788,46	300,00	3,756	83,271	-2,15216
793,21	300,00	3,753	83,206	33,6816
797,96	300,00	3,749	83,131	15,4447
802,71	300,00	3,748	83,094	-7,48350
807,46	300,00	3,744	83,009	-3,99981
812,21	300,00	3,741	82,959	-9,18591
816,96	300,00	3,738	82,887	-21,7866
821,71	300,00	3,735	82,823	18,4486
826,46	300,00	3,733	82,762	34,2993
831,21	300,00	3,730	82,700	5,29638
835,96	300,00	3,726	82,627	-16,9060
840,71	300,00	3,724	82,567	-6,26294
845,46	300,00	3,721	82,512	11,4258
850,21	300,00	3,719	82,453	-8,48907
854,96	300,00	3,716	82,398	-5,43077
859,71	300,00	3,712	82,309	24,6743
864,46	300,00	3,710	82,256	-25,4860
869,21	300,00	3,707	82,190	-17,2397
873,96	300,00	3,704	82,133	-31,3557
878,71	300,00	3,701	82,064	16,3179
883,46	300,00	3,699	82,008	27,0334
888,21	300,00	3,696	81,949	5,89281
892,96	300,00	3,693	81,881	-12,0255
897,71	300,00	3,690	81,828	14,3279
902,46	300,00	3,688	81,775	16,4979
907,21	300,00	3,685	81,709	-22,3650
911,96	300,00	3,682	81,651	-29,8773
916,71	300,00	3,680	81,588	-2,90616
921,46	300,00	3,677	81,525	-7,93370
926,21	300,00	3,674	81,470	7,83498
930,96	300,00	3,672	81,409	14,8020
935,71	300,00	3,669	81,350	-8,77576
940,46	300,00	3,666	81,295	3,43767
945,21	300,00	3,664	81,234	-2,91037
949,96	300,00	3,661	81,170	19,6383
954,71	300,00	3,659	81,120	-20,0152
959,46	300,00	3,656	81,062	7,50205
964,21	300,00	3,653	81,004	12,7157
968,96	300,00	3,651	80,948	15,4987
973,71	300,00	3,648	80,894	-19,2538
978,46	300,00	3,646	80,832	-9,97828
983,21	300,00	3,643	80,774	-33,7363
987,96	300,00	3,640	80,719	26,6642
992,71	300,00	3,638	80,656	-10,1347
997,46	300,00	3,635	80,593	2,87916
1002,21	300,00	3,632	80,537	-1,48887
1006,96	300,00	3,630	80,486	-0,522087
1011,71	300,00	3,627	80,427	-19,9351
1016,46	300,00	3,625	80,367	25,5424
1021,21	300,00	3,623	80,325	32,8801
1025,96	300,00	3,619	80,243	20,5049
1030,71	300,00	3,618	80,219	-21,1628
1035,46	300,00	3,615	80,145	20,1533
1040,21	300,00	3,612	80,097	14,2950
1044,96	300,00	3,609	80,031	11,1609
1049,71	300,00	3,607	79,975	-18,3939
1054,46	300,00	3,604	79,921	-19,4486
1059,21	300,00	3,602	79,861	-8,57909
1063,96	300,00	3,599	79,801	16,9633
1068,71	300,00	3,596	79,742	-7,14959
1073,46	300,00	3,594	79,683	-4,19136
1078,21	300,00	3,591	79,622	24,9546
1082,96	300,00	3,589	79,575	3,10423
1087,71	300,00	3,586	79,513	-23,1018
1092,46	300,00	3,584	79,458	-16,2775
1097,21	300,00	3,581	79,397	12,0648
1101,96	300,00	3,579	79,351	24,5549
1106,71	300,00	3,576	79,290	0,821951
1111,46	300,00	3,573	79,233	-27,4096
1116,21	300,00	3,571	79,177	-27,2371
1120,96	300,00	3,568	79,116	12,9058
1125,71	300,00	3,566	79,063	17,7088
1130,46	300,00	3,563	79,006	6,70361
1135,21	300,00	3,561	78,954	28,1523
1139,96	300,00	3,559	78,904	25,0635
1144,71	300,00	3,556	78,848	0,163214
1149,46	300,00	3,554	78,804	-10,9552
1154,21	300,00	3,552	78,751	-13,4238
1158,96	300,00	3,549	78,693	-17,9517
1163,71	300,00	3,547	78,637	-1,92643
1168,46	300,00	3,544	78,571	1,56329
1173,21	300,00	3,542	78,528	-7,73016
1177,96	300,00	3,539	78,474	6,93404
1182,71	300,00	3,537	78,423	25,7037
1187,46	300,00	3,535	78,372	17,3249
1192,21	300,00	3,533	78,328	-8,44287
1196,96	300,00	3,530	78,264	0,396988
1201,71	300,00	3,527	78,212	-15,4413
1206,46	300,00	3,525	78,154	-10,9091
1211,21	300,00	3,522	78,092	-17,2147
1215,96	300,00	3,520	78,051	-6,89330
1220,71	300,00	3,517	77,987	21,0075
1225,46	300,00	3,515	77,941	27,4580
1230,21	300,00	3,513	77,892	18,7283
1234,96	300,00	3,510	77,837	-3,01478
1239,71	300,00	3,508	77,783	-24,0914
1244,46	300,00	3,505	77,727	-19,1446
1249,21	300,00	3,503	77,678	-20,9043
1253,96	300,00	3,501	77,622	0,633107
1258,71	300,00	3,498	77,567	-0,0114745
1263,46	300,00	3,496	77,511	-8,04754e-3
1268,21	320,11	3,494	77,462	-0,0556793
1272,96	366,27	3,438	76,220	-0,375899
1277,71	414,46	2,465	54,659	-0,634440
1282,46	462,09	0,101	2,237	-0,497258
1287,21	509,75	0,038	0,836	-0,0854083
1291,96	557,37	0,036	0,803	-1,08716e-3
1296,71	604,98	0,036	0,795	8,89879e-5
1301,46	652,57	0,036	0,807	4,78855e-4
1306,21	700,15	0,038	0,844	7,44923e-4
1310,96	747,72	0,039	0,875	8,01336e-4
1314,88	786,93	0,041	0,916	8,99888e-4