File: data/TGA/005d-L_M/F10_000002 -temp_104 AMU_XIC
Time	Ion Current
min	mA
0.00	1.00000e-13
4.52	1.00000e-13
9.05	1.00000e-13
13.58	1.00000e-13
18.10	1.00000e-13
22.63	1.00000e-13
27.16	1.00000e-13
31.68	1.00000e-13
36.21	1.00000e-13
40.74	1.00000e-13
45.26	1.00000e-13
49.79	1.00000e-13
54.31	1.00000e-13
58.84	1.00000e-13
63.37	1.00000e-13
67.89	1.00000e-13
72.42	1.00000e-13
76.94	1.00000e-13
81.47	1.00000e-13
86.00	3.70731e-6
90.52	1.00000e-13
95.05	1.00000e-13
99.57	1.00000e-13
104.10	1.00000e-13
108.63	1.00000e-13
113.15	2.53719e-5
117.68	1.00000e-13
122.21	1.00000e-13
126.73	1.00000e-13
131.26	1.00000e-13
135.78	1.55244e-5
140.31	1.00000e-13
144.84	1.00000e-13
149.36	1.00000e-13
153.89	1.00000e-13
158.42	1.00000e-13
162.94	1.00000e-13
167.46	1.00000e-13
171.99	1.00000e-13
176.52	1.00000e-13
181.05	1.00000e-13
185.57	1.00000e-13
190.10	1.00000e-13
194.62	1.05427e-5
199.15	1.00000e-13
203.67	1.00000e-13
208.20	1.00000e-13
212.73	1.00000e-13
217.26	1.00000e-13
221.78	1.74939e-5
226.31	1.00000e-13
230.83	1.00000e-13
235.36	1.00000e-13
239.89	1.00000e-13
244.41	1.00000e-13
248.94	1.00000e-13
253.47	1.00000e-13
257.99	1.00000e-13
262.52	1.00000e-13
267.04	1.00000e-13
271.57	1.00000e-13
276.09	1.00000e-13
280.62	1.00000e-13
285.15	1.00000e-13
289.67	1.00000e-13
294.20	1.00000e-13
298.73	1.00000e-13
303.25	1.00000e-13
307.78	1.00000e-13
312.30	1.00000e-13
316.83	1.00000e-13
321.36	1.00000e-13
325.88	1.00000e-13
330.41	1.00000e-13
334.93	1.00000e-13
339.46	1.00000e-13
343.99	1.00000e-13
348.51	1.00000e-13
353.04	1.00000e-13
357.57	1.00000e-13
362.09	1.00000e-13
366.62	1.00000e-13
371.15	1.00000e-13
375.67	1.00000e-13
380.20	1.00000e-13
384.72	1.00000e-13
389.25	1.00000e-13
393.78	1.00000e-13
398.30	1.00000e-13
402.83	1.17012e-5
407.36	1.00000e-13
411.88	1.00000e-13
416.41	1.00000e-13
420.93	1.00000e-13
425.46	1.00000e-13
429.98	1.00000e-13
434.51	1.00000e-13
439.04	1.00000e-13
443.56	1.00000e-13
448.09	1.00000e-13
452.61	1.00000e-13
457.14	1.00000e-13
461.67	1.00000e-13
466.19	1.00000e-13
470.72	1.00000e-13
475.24	1.00000e-13
479.77	1.45975e-5
484.30	1.00000e-13
488.83	1.00000e-13
493.35	1.00000e-13
497.88	1.00000e-13
502.40	1.15853e-5
506.93	1.00000e-13
511.45	1.00000e-13
515.98	1.00000e-13
520.51	1.00000e-13
525.03	1.00000e-13
529.56	1.00000e-13
534.09	5.79267e-6
538.61	1.04268e-6
543.14	1.00000e-13
547.66	1.00000e-13
552.19	1.00000e-13
556.72	1.00000e-13
561.24	1.00000e-13
565.77	1.00000e-13
570.29	1.00000e-13
574.82	1.00000e-13
579.35	1.00000e-13
583.87	1.00000e-13
588.40	1.00000e-13
592.93	1.00000e-13
597.45	1.00000e-13
601.98	1.00000e-13
606.50	1.00000e-13
611.03	1.00000e-13
615.56	1.00000e-13
620.08	1.00000e-13
624.61	1.00000e-13
629.14	1.00000e-13
633.66	1.00000e-13
638.19	1.00000e-13
642.72	1.00000e-13
647.24	1.00000e-13
651.77	1.00000e-13
656.29	1.00000e-13
660.82	1.00000e-13
665.34	1.00000e-13
669.87	1.00000e-13
674.40	1.00000e-13
678.92	1.00000e-13
683.45	1.00000e-13
687.98	1.00000e-13
692.50	1.00000e-13
697.03	1.00000e-13
701.56	1.00000e-13
706.08	1.00000e-13
710.61	1.00000e-13
715.13	1.00000e-13
719.66	5.12072e-5
724.19	1.00000e-13
728.71	1.00000e-13
733.24	1.00000e-13
737.76	1.00000e-13
742.29	1.00000e-13
746.82	1.00000e-13
751.34	1.00000e-13
755.87	1.00000e-13
760.39	1.00000e-13
764.92	1.00000e-13
769.45	1.00000e-13
773.98	1.00000e-13
778.50	1.00000e-13
783.03	1.00000e-13
787.55	1.00000e-13
792.08	1.00000e-13
796.60	1.00000e-13
801.13	1.00000e-13
805.66	6.60365e-6
810.18	1.00000e-13
814.71	1.00000e-13
819.24	1.00000e-13
823.76	1.00000e-13
828.29	1.00000e-13
832.81	1.00000e-13
837.34	1.00000e-13
841.87	1.00000e-13
846.39	1.00000e-13
850.92	1.00000e-13
855.45	1.00000e-13
859.97	1.00000e-13
864.50	1.00000e-13
869.02	1.00000e-13
873.55	1.00000e-13
878.08	1.00000e-13
882.60	1.00000e-13
887.13	1.00000e-13
891.65	1.00000e-13
896.18	1.00000e-13
900.71	1.00000e-13
905.24	1.00000e-13
909.76	1.00000e-13
914.29	1.00000e-13
918.81	1.00000e-13
923.34	1.00000e-13
927.86	1.00000e-13
932.39	1.00000e-13
936.92	1.00000e-13
941.44	1.00000e-13
945.97	1.00000e-13
950.49	1.00000e-13
955.02	1.00000e-13
959.55	1.00000e-13
964.07	1.00000e-13
968.60	1.00000e-13
973.13	1.00000e-13
977.65	1.00000e-13
982.18	1.00000e-13
986.71	1.00000e-13
991.23	1.00000e-13
995.76	1.00000e-13
1000.28	1.00000e-13
1004.81	1.00000e-13
1009.34	1.00000e-13
1013.86	1.00000e-13
1018.39	1.00000e-13
1022.91	1.00000e-13
1027.44	1.00000e-13
1031.97	9.26828e-6
1036.49	1.00000e-13
1041.02	1.00000e-13
1045.55	1.00000e-13
1050.07	1.00000e-13
1054.60	1.00000e-13
1059.13	1.00000e-13
1063.65	1.00000e-13
1068.18	1.00000e-13
1072.70	1.00000e-13
1077.23	1.00000e-13
1081.75	1.00000e-13
1086.28	1.00000e-13
1090.81	1.00000e-13
1095.33	1.00000e-13
1099.86	1.00000e-13
1104.39	1.00000e-13
1108.91	1.00000e-13
1113.44	1.00000e-13
1117.96	1.00000e-13
1122.49	1.00000e-13
1127.02	1.00000e-13
1131.54	1.00000e-13
1136.07	1.00000e-13
1140.59	1.00000e-13
1145.12	1.00000e-13
1149.65	1.00000e-13
1154.18	1.00000e-13
1158.70	1.00000e-13
1163.22	1.00000e-13
1167.75	1.00000e-13
1172.28	1.00000e-13
1176.80	1.00000e-13
1181.33	1.00000e-13
1185.86	1.00000e-13
1190.38	1.00000e-13
1194.91	1.00000e-13
1199.44	1.00000e-13
1203.96	1.00000e-13
1208.49	1.00000e-13
1213.01	1.00000e-13
1217.54	1.00000e-13
1222.06	1.00000e-13
1226.59	1.00000e-13
1231.12	1.00000e-13
1235.64	1.00000e-13
1240.17	1.00000e-13
1244.70	1.77256e-5
1249.22	1.00000e-13
1253.75	1.00000e-13
1258.27	1.00000e-13
1262.80	1.00000e-13
1267.33	1.00000e-13
1271.85	2.97164e-4
1276.38	0.0102535
1280.90	0.0287424
1285.43	4.39861e-3
1289.96	6.47505e-4
1294.48	1.41457e-4
1299.01	4.14755e-5
1303.54	1.00000e-13
1308.06	3.69573e-5
1312.59	9.49998e-6
1313.07	3.51036e-5