File: data/TGA/005d-L_M/F1_000001 -temp_104 AMU_XIC
Time	Ion Current
min	mA
0.00	1.00000e-13
4.52	1.00000e-13
9.05	1.00000e-13
13.58	1.00000e-13
18.11	1.00000e-13
22.63	1.00000e-13
27.16	1.00000e-13
31.68	1.00000e-13
36.21	1.00000e-13
40.73	1.00000e-13
45.26	1.00000e-13
49.79	1.00000e-13
54.31	1.00000e-13
58.84	1.00000e-13
63.37	1.00000e-13
67.90	1.00000e-13
72.42	2.54878e-6
76.95	1.00000e-13
81.47	1.11219e-5
86.00	6.60365e-6
90.53	2.74573e-5
95.05	3.31341e-5
99.58	6.37194e-6
104.10	1.00000e-13
108.63	9.38413e-6
113.15	1.00000e-13
117.68	1.00000e-13
122.21	3.97377e-5
126.73	1.00000e-13
131.26	2.12012e-5
135.79	9.38413e-6
140.32	1.07744e-5
144.84	1.00000e-13
149.37	7.04389e-5
153.89	9.03657e-6
158.42	2.25914e-5
162.94	1.50610e-6
167.47	1.00000e-13
172.00	1.00000e-13
176.52	2.32865e-5
181.05	2.59512e-5
185.57	1.00000e-13
190.10	1.00000e-13
194.63	9.26828e-7
199.15	1.00000e-13
203.68	1.00000e-13
208.21	7.87804e-6
212.73	1.00000e-13
217.26	1.00000e-13
221.79	1.00000e-13
226.31	1.00000e-13
230.84	1.94634e-5
235.36	1.00000e-13
239.89	2.78048e-5
244.42	1.84207e-5
248.94	1.00000e-13
253.47	1.00000e-13
258.00	3.24390e-6
262.52	1.27439e-6
267.05	1.00000e-13
271.57	1.00000e-13
276.10	5.09755e-6
280.63	2.53719e-5
285.15	4.28658e-6
289.68	1.00000e-13
294.20	8.57316e-6
298.73	1.00000e-13
303.26	1.00000e-13
307.79	1.00000e-13
312.31	2.68780e-5
316.84	1.14695e-5
321.36	8.34145e-6
325.89	1.00000e-13
330.41	1.00000e-13
334.94	2.03902e-5
339.47	1.00000e-13
343.99	1.00000e-13
348.52	1.00000e-13
353.04	1.96951e-6
357.57	1.00000e-13
362.10	1.00000e-13
366.62	1.00000e-13
371.15	1.00000e-13
375.68	1.00000e-13
380.20	1.00000e-13
384.73	1.00000e-13
389.25	1.00000e-13
393.78	1.35549e-5
398.31	1.00000e-13
402.83	1.00000e-13
407.36	5.32926e-6
411.89	1.00000e-13
416.41	1.00000e-13
420.94	1.00000e-13
425.46	1.00000e-13
429.99	1.00000e-13
434.52	1.00000e-13
439.04	1.00000e-13
443.57	1.00000e-13
448.09	1.00000e-13
452.62	1.00000e-13
457.15	1.00000e-13
461.67	1.00000e-13
466.20	1.00000e-13
470.73	1.00000e-13
475.25	1.00000e-13
479.78	1.00000e-13
484.30	1.00000e-13
488.83	1.00000e-13
493.36	1.00000e-13
497.88	1.00000e-13
502.41	1.00000e-13
506.94	1.00000e-13
511.46	1.00000e-13
515.99	1.62195e-6
520.51	1.00000e-13
525.04	1.00000e-13
529.57	8.22560e-6
534.09	1.00000e-13
538.62	1.00000e-13
543.14	1.00000e-13
547.67	1.00000e-13
552.20	1.00000e-13
556.72	1.00000e-13
561.25	1.00000e-13
565.78	1.00000e-13
570.30	1.00000e-13
574.83	1.00000e-13
579.36	1.00000e-13
583.88	1.00000e-13
588.41	1.00000e-13
592.93	1.00000e-13
597.46	1.00000e-13
601.99	1.00000e-13
606.51	1.00000e-13
611.04	1.00000e-13
615.56	1.00000e-13
620.09	1.00000e-13
624.62	1.00000e-13
629.14	1.00000e-13
633.67	1.00000e-13
638.20	1.00000e-13
642.72	1.00000e-13
647.25	1.00000e-13
651.78	1.00000e-13
656.30	1.00000e-13
660.83	1.00000e-13
665.35	1.00000e-13
669.88	1.00000e-13
674.41	7.41462e-6
678.93	1.00000e-13
683.46	1.00000e-13
687.99	1.00000e-13
692.51	1.14695e-5
697.04	1.00000e-13
701.57	1.00000e-13
706.09	1.00000e-13
710.62	1.00000e-13
715.14	1.00000e-13
719.67	1.00000e-13
724.20	1.00000e-13
728.72	1.00000e-13
733.25	1.00000e-13
737.77	9.03657e-6
742.30	1.00000e-13
746.83	1.00000e-13
751.35	1.00000e-13
755.88	1.00000e-13
760.41	1.00000e-13
764.93	1.00000e-13
769.46	1.00000e-13
773.98	1.00000e-13
778.51	1.00000e-13
783.03	1.00000e-13
787.56	1.00000e-13
792.09	1.00000e-13
796.62	1.00000e-13
801.14	1.00000e-13
805.67	1.00000e-13
810.19	1.00000e-13
814.72	1.04268e-6
819.25	1.00000e-13
823.77	1.32073e-5
828.30	1.00000e-13
832.82	1.00000e-13
837.35	1.00000e-13
841.88	1.00000e-13
846.40	1.00000e-13
850.93	2.30548e-5
855.45	1.00000e-13
859.98	1.65670e-5
864.51	1.00000e-13
869.04	1.00000e-13
873.56	1.00000e-13
878.09	1.00000e-13
882.61	1.00000e-13
887.14	1.00000e-13
891.66	1.00000e-13
896.19	1.00000e-13
900.72	1.00000e-13
905.24	1.00000e-13
909.77	1.00000e-13
914.30	1.00000e-13
918.82	1.00000e-13
923.35	1.00000e-13
927.88	1.00000e-13
932.40	4.17073e-6
936.93	1.00000e-13
941.45	1.00000e-13
945.98	1.00000e-13
950.50	1.00000e-13
955.03	3.84634e-5
959.56	1.00000e-13
964.08	1.00000e-13
968.61	1.00000e-13
973.14	2.80365e-5
977.66	1.00000e-13
982.19	1.00000e-13
986.72	1.00000e-13
991.24	1.00000e-13
995.77	1.00000e-13
1000.29	1.00000e-13
1004.82	1.00000e-13
1009.35	1.00000e-13
1013.87	1.00000e-13
1018.40	1.00000e-13
1022.93	1.00000e-13
1027.45	1.00000e-13
1031.98	1.00000e-13
1036.50	1.00000e-13
1041.03	1.00000e-13
1045.56	1.00000e-13
1050.08	1.00000e-13
1054.61	3.93902e-6
1059.13	1.00000e-13
1063.66	1.00000e-13
1068.19	1.00000e-13
1072.71	1.00000e-13
1077.24	7.64633e-6
1081.76	1.00000e-13
1086.29	1.00000e-13
1090.82	2.54878e-6
1095.34	1.00000e-13
1099.87	1.00000e-13
1104.40	1.00000e-13
1108.92	1.00000e-13
1113.45	1.00000e-13
1117.97	1.00000e-13
1122.50	1.00000e-13
1127.03	1.00000e-13
1131.55	1.00000e-13
1136.08	6.60365e-6
1140.60	1.00000e-13
1145.13	4.98170e-6
1149.66	1.00000e-13
1154.18	1.00000e-13
1158.71	1.00000e-13
1163.24	1.00000e-13
1167.76	1.00000e-13
1172.29	1.00000e-13
1176.82	1.00000e-13
1181.34	1.00000e-13
1185.87	1.96951e-5
1190.39	1.00000e-13
1194.92	1.00000e-13
1199.45	1.00000e-13
1203.97	1.00000e-13
1208.50	1.00000e-13
1213.03	1.00000e-13
1217.55	1.00000e-13
1222.08	1.00000e-13
1226.61	1.00000e-13
1231.13	1.00000e-13
1235.66	3.59146e-6
1240.18	1.00000e-13
1244.71	6.02438e-6
1249.23	1.00000e-13
1253.76	1.00000e-13
1258.29	1.00000e-13
1262.81	1.00000e-13
1267.34	1.00000e-13
1271.87	1.08091e-4
1276.39	4.90952e-3
1280.92	0.0369720
1285.44	2.88800e-3
1289.97	2.13402e-4
1294.50	5.78109e-5
1299.02	9.26828e-7
1303.55	1.00000e-13
1308.08	1.00000e-13
1312.60	1.00000e-13
1314.54	1.00000e-13