File: data/TGA/005d-L_M/F2.txt
Filename	F2
Instrument name
Operator	Gwenael
rundate	2025-02-10
Sample name	F2
[step]
Step 1
Time	Temperature	Weight	Weight	Deriv. Weight
min	°C	mg	%	% / °C
0.02	26.50	2.993	100.055	1.90968e-3
4.71	41.01	3.001	100.330	-2.81325e-5
9.46	64.11	3.000	100.304	-1.60922e-3
14.21	87.54	2.998	100.244	-5.19192e-3
18.96	103.02	2.993	100.076	-0.0114239
23.71	100.64	2.988	99.904	-6.22526e-3
28.46	110.12	2.989	99.927	-1.39781e-3
33.21	132.89	2.988	99.901	-1.59925e-3
37.96	156.76	2.987	99.861	-2.62332e-3
42.71	180.63	2.983	99.747	-3.14284e-3
47.46	204.40	2.982	99.687	-2.53018e-3
52.21	228.16	2.980	99.639	-1.80380e-3
56.96	251.97	2.980	99.616	-2.21733e-3
61.71	275.75	2.977	99.544	-5.68541e-3
66.46	298.50	2.972	99.361	-0.0130114
71.21	301.45	2.964	99.091	-0.0312044
75.96	299.67	2.957	98.876	0.219219
80.71	300.00	2.951	98.679	-9.90945e-3
85.46	300.04	2.946	98.492	-0.991482
90.21	299.98	2.940	98.286	4.82448
94.96	300.00	2.934	98.079	-13.5511
99.71	300.00	2.927	97.875	0.0141498
104.46	300.00	2.921	97.662	-26.6186
109.21	300.00	2.915	97.456	-51.8248
113.96	300.00	2.909	97.245	56.7128
118.71	300.00	2.902	97.030	-11.9244
123.46	300.00	2.896	96.810	-14.9939
128.21	300.00	2.890	96.608	58.8489
132.96	300.00	2.883	96.394	60.0804
137.71	300.00	2.876	96.170	-78.3531
142.46	300.00	2.870	95.948	-86.4260
147.21	300.00	2.864	95.755	-100.334
151.96	300.00	2.858	95.547	55.6649
156.71	300.00	2.852	95.346	59.9487
161.46	300.00	2.847	95.195	44.3861
166.21	300.00	2.841	94.970	-11.2269
170.96	300.00	2.834	94.762	102.532
175.71	300.00	2.828	94.552	-47.5234
180.46	300.00	2.822	94.366	-61.2644
185.21	300.00	2.817	94.166	-24.7558
189.96	300.00	2.811	93.975	-12.0443
194.71	300.00	2.805	93.779	40.6505
199.46	300.00	2.799	93.592	-2.32012
204.21	300.00	2.793	93.380	-16.7658
208.96	300.00	2.788	93.212	-13.8027
213.71	300.00	2.782	93.022	104.308
218.46	300.00	2.777	92.830	-54.2655
223.21	300.00	2.771	92.651	-52.7065
227.96	300.00	2.766	92.482	-75.9467
232.71	300.00	2.761	92.300	-7.61235
237.46	300.00	2.756	92.140	-33.2865
242.21	300.00	2.751	91.960	-26.4987
246.96	300.00	2.746	91.798	-72.5823
251.71	300.00	2.741	91.641	23.0652
256.46	300.00	2.736	91.484	67.6701
261.21	300.00	2.732	91.333	82.0934
265.96	300.00	2.727	91.183	-12.4487
270.71	300.00	2.722	91.023	-11.2851
275.46	300.00	2.719	90.897	-64.2201
280.21	300.00	2.714	90.754	20.9104
284.96	300.00	2.710	90.619	31.5287
289.71	300.00	2.706	90.479	6.27826
294.46	300.00	2.703	90.356	-50.4823
299.21	300.00	2.699	90.226	-41.7278
303.96	300.00	2.695	90.114	0.228586
308.71	300.00	2.691	89.983	-2.18213
313.46	300.00	2.688	89.860	45.4120
318.21	300.00	2.684	89.736	4.96189
322.96	300.00	2.680	89.618	-68.7174
327.71	300.00	2.677	89.507	32.8549
332.46	300.00	2.673	89.380	19.0821
337.21	300.00	2.669	89.246	-35.3026
341.96	300.00	2.667	89.151	-60.8006
346.71	300.00	2.663	89.043	46.4953
351.46	300.00	2.660	88.929	19.1094
356.21	300.00	2.656	88.800	-1.55452
360.96	300.00	2.653	88.702	-12.5364
365.71	300.00	2.650	88.609	28.2892
370.46	300.00	2.647	88.494	-17.6430
375.21	300.00	2.644	88.401	26.0424
379.96	300.00	2.641	88.311	-5.13316
384.71	300.00	2.638	88.202	-9.30932
389.46	300.00	2.635	88.102	9.15045
394.21	300.00	2.633	88.023	-0.185792
398.96	300.00	2.629	87.898	-40.2976
403.71	300.00	2.627	87.828	-55.4853
408.46	300.00	2.624	87.723	24.3426
413.21	300.00	2.621	87.626	35.4625
417.96	300.00	2.618	87.537	-2.32756
422.71	300.00	2.616	87.460	-19.9916
427.46	300.00	2.613	87.365	32.0404
432.21	300.00	2.610	87.277	23.2442
436.96	300.00	2.608	87.185	8.96138
441.71	300.00	2.605	87.099	4.69554
446.46	300.00	2.603	87.012	30.8061
451.21	300.00	2.600	86.928	28.8006
455.96	300.00	2.597	86.841	-9.46131
460.71	300.00	2.595	86.746	-19.6550
465.46	300.00	2.592	86.657	-7.16848
470.21	300.00	2.589	86.572	-13.6787
474.96	300.00	2.587	86.496	-9.38044
479.71	300.00	2.584	86.389	-21.1659
484.46	300.00	2.582	86.310	10.8884
489.21	300.00	2.579	86.231	-24.5951
493.96	300.00	2.577	86.152	40.0478
498.71	300.00	2.573	86.035	23.3660
503.46	300.00	2.571	85.971	-5.63984
508.21	300.00	2.569	85.884	-35.6443
512.96	300.00	2.566	85.802	-20.1369
517.71	300.00	2.564	85.719	28.4963
522.46	300.00	2.562	85.661	52.4016
527.21	300.00	2.559	85.558	-22.5957
531.96	300.00	2.557	85.475	-23.7866
536.71	300.00	2.554	85.400	-7.96008
541.46	300.00	2.552	85.331	24.5505
546.21	300.00	2.550	85.242	27.2932
550.96	300.00	2.547	85.151	-15.1918
555.71	300.00	2.545	85.091	-13.6729
560.46	300.00	2.542	85.001	23.7980
565.21	300.00	2.540	84.920	21.2833
569.96	300.00	2.537	84.824	-16.8623
574.71	300.00	2.535	84.766	-20.1228
579.46	300.00	2.533	84.688	-33.4185
584.21	300.00	2.531	84.617	20.1481
588.96	300.00	2.529	84.543	32.3452
593.71	300.00	2.527	84.473	20.4996
598.46	300.00	2.524	84.392	-15.0573
603.21	300.00	2.521	84.297	10.5516
607.96	300.00	2.520	84.244	-3.27201
612.71	300.00	2.517	84.167	22.9353
617.46	300.00	2.515	84.084	-22.4741
622.21	300.00	2.513	84.008	-21.4918
626.96	300.00	2.510	83.933	3.75199
631.71	300.00	2.508	83.850	16.0441
636.46	300.00	2.505	83.767	-22.5984
641.21	300.00	2.503	83.697	9.31907
645.96	300.00	2.501	83.604	19.5412
650.71	300.00	2.498	83.531	-20.6071
655.46	300.00	2.496	83.465	-48.0976
660.21	300.00	2.494	83.384	-5.19288
664.96	300.00	2.492	83.313	31.3794
669.71	300.00	2.490	83.237	10.7269
674.46	300.00	2.488	83.171	-10.3537
679.21	300.00	2.486	83.108	-2.53854
683.96	300.00	2.483	83.032	-30.4620
688.71	300.00	2.482	82.967	-25.3268
693.46	300.00	2.480	82.912	-24.1866
698.21	300.00	2.478	82.838	11.8969
702.96	300.00	2.476	82.777	21.8863
707.71	300.00	2.474	82.722	3.18737
712.46	300.00	2.472	82.651	2.63232
717.21	300.00	2.471	82.600	8.40348
721.96	300.00	2.469	82.543	-4.97416
726.71	300.00	2.467	82.478	29.8964
731.46	300.00	2.465	82.421	8.31482
736.21	300.00	2.463	82.359	-28.8625
740.96	300.00	2.461	82.295	2.11504
745.71	300.00	2.459	82.223	26.6462
750.46	300.00	2.458	82.173	-5.63995
755.21	300.00	2.456	82.104	-32.7523
759.96	300.00	2.453	82.022	-18.6328
764.71	300.00	2.452	81.980	21.1859
769.46	300.00	2.450	81.909	30.7267
774.21	300.00	2.448	81.852	12.1079
778.96	300.00	2.446	81.783	-16.5240
783.71	300.00	2.445	81.732	-23.4189
788.46	300.00	2.442	81.659	-14.6646
793.21	300.00	2.440	81.584	0.502518
797.96	300.00	2.438	81.512	-5.34354
802.71	300.00	2.436	81.442	-30.8164
807.46	300.00	2.434	81.374	1.48499
812.21	300.00	2.432	81.303	21.9543
816.96	300.00	2.430	81.246	18.0610
821.71	300.00	2.428	81.179	-23.1861
826.46	300.00	2.426	81.118	18.5373
831.21	300.00	2.425	81.063	14.1435
835.96	300.00	2.423	80.995	10.0848
840.71	300.00	2.421	80.933	-35.6510
845.46	300.00	2.419	80.862	-37.0506
850.21	300.00	2.416	80.788	-26.8400
854.96	300.00	2.414	80.725	20.9681
859.71	300.00	2.413	80.664	11.9167
864.46	300.00	2.411	80.607	19.1200
869.21	300.00	2.409	80.537	23.3074
873.96	300.00	2.407	80.475	24.6185
878.71	300.00	2.405	80.413	13.0641
883.46	300.00	2.403	80.355	5.46910
888.21	300.00	2.401	80.284	-26.2336
892.96	300.00	2.399	80.215	-31.7437
897.71	300.00	2.397	80.152	-10.5363
902.46	300.00	2.395	80.082	21.4507
907.21	300.00	2.394	80.025	27.2405
911.96	300.00	2.391	79.950	-13.5268
916.71	300.00	2.390	79.902	5.72247
921.46	300.00	2.388	79.832	18.5068
926.21	300.00	2.386	79.777	16.3802
930.96	300.00	2.384	79.700	-23.7593
935.71	300.00	2.382	79.627	-24.6143
940.46	300.00	2.379	79.554	-15.0636
945.21	300.00	2.377	79.475	9.34859
949.96	300.00	2.375	79.416	8.55303
954.71	300.00	2.373	79.346	-14.7199
959.46	300.00	2.371	79.269	26.8110
964.21	300.00	2.370	79.225	24.9795
968.96	300.00	2.368	79.159	17.6508
973.71	300.00	2.366	79.098	-8.82254
978.46	300.00	2.364	79.035	-29.6540
983.21	300.00	2.362	78.962	-43.7799
987.96	300.00	2.360	78.890	-20.2552
992.71	300.00	2.357	78.818	3.00078
997.46	300.00	2.356	78.754	-5.56546
1002.21	300.00	2.353	78.670	27.1208
1006.96	300.00	2.352	78.620	23.5282
1011.71	300.00	2.349	78.552	-17.2846
1016.46	300.00	2.348	78.494	-15.5885
1021.21	300.00	2.346	78.450	23.7570
1025.96	300.00	2.345	78.405	22.6006
1030.71	300.00	2.343	78.330	16.4094
1035.46	300.00	2.341	78.280	-7.77520
1040.21	300.00	2.339	78.213	-7.91033
1044.96	300.00	2.338	78.153	-28.8192
1049.71	300.00	2.336	78.086	-20.7339
1054.46	300.00	2.334	78.024	-32.7224
1059.21	300.00	2.332	77.958	14.4367
1063.96	300.00	2.330	77.903	-1.02059
1068.71	300.00	2.328	77.846	-11.1238
1073.46	300.00	2.326	77.781	-0.829353
1078.21	300.00	2.325	77.724	23.1162
1082.96	300.00	2.324	77.684	9.45517
1087.71	300.00	2.321	77.610	-5.80057
1092.46	300.00	2.320	77.556	-0.981099
1097.21	300.00	2.318	77.492	13.6977
1101.96	300.00	2.316	77.432	-32.8599
1106.71	300.00	2.314	77.375	-23.9938
1111.46	300.00	2.312	77.295	-21.3986
1116.21	300.00	2.310	77.229	-27.8950
1120.96	300.00	2.308	77.165	2.07544
1125.71	300.00	2.306	77.097	24.4269
1130.46	300.00	2.304	77.036	27.6661
1135.21	300.00	2.303	76.984	25.5935
1139.96	300.00	2.301	76.924	20.9691
1144.71	300.00	2.299	76.868	2.58061
1149.46	300.00	2.297	76.812	16.3565
1154.21	300.00	2.296	76.750	-26.9435
1158.96	300.00	2.294	76.681	-29.8537
1163.71	300.00	2.292	76.622	-2.59232
1168.46	300.00	2.290	76.553	31.9998
1173.21	300.00	2.288	76.505	29.9896
1177.96	300.00	2.286	76.431	-10.1990
1182.71	300.00	2.284	76.366	-12.8573
1187.46	300.00	2.283	76.332	1.91474
1192.21	300.00	2.281	76.259	36.6205
1196.96	300.00	2.279	76.205	3.97651
1201.71	300.00	2.278	76.154	-29.8739
1206.46	300.00	2.276	76.087	-13.2221
1211.21	300.00	2.274	76.019	32.9732
1215.96	300.00	2.272	75.957	22.2202
1220.71	300.00	2.270	75.890	-26.6241
1225.46	300.00	2.268	75.827	-28.7762
1230.21	300.00	2.266	75.770	-14.2950
1234.96	300.00	2.265	75.715	26.7321
1239.71	300.00	2.263	75.648	19.8128
1244.46	300.00	2.261	75.591	8.86291
1249.21	300.00	2.259	75.538	-11.0899
1253.96	300.00	2.258	75.487	24.3405
1258.71	300.00	2.256	75.434	-7.34595e-3
1263.46	300.00	2.255	75.388	-0.0100365
1268.21	322.81	2.253	75.328	-0.0793083
1272.96	369.27	2.198	73.482	-0.428530
1277.71	417.42	1.302	43.541	-0.622701
1282.46	465.03	0.049	1.628	-0.430898
1287.21	512.69	0.028	0.922	-0.0435497
1291.96	560.32	0.027	0.911	8.32868e-6
1296.71	607.92	0.028	0.942	6.70277e-4
1301.46	655.51	0.029	0.964	1.05508e-3
1306.21	703.09	0.032	1.058	1.26278e-3
1310.96	750.66	0.033	1.103	1.38652e-3
1314.54	786.53	0.034	1.153	1.35414e-3