File: data/TGA/005d-L_M/F4.txt
Filename	F4
Instrument name
Operator	Gwenael
rundate	2025-02-10
Sample name	F4
[step]
Step 1
Time	Temperature	Weight	Weight	Deriv. Weight
min	°C	mg	%	% / °C
0,02	26,46	2,685	100,023	6,99510e-4
4,71	40,97	2,691	100,258	-9,10043e-4
9,46	64,08	2,689	100,197	-2,75037e-3
14,21	87,51	2,688	100,141	-7,13129e-3
18,96	103,01	2,682	99,910	-0,0149137
23,71	100,64	2,677	99,731	-7,37346e-3
28,46	110,08	2,677	99,725	-1,69156e-3
33,21	132,85	2,675	99,681	-1,39950e-3
37,96	156,72	2,675	99,663	-1,53186e-3
42,71	180,60	2,674	99,619	-1,68581e-3
47,46	204,36	2,673	99,580	-1,73677e-3
52,21	228,13	2,671	99,528	-1,70980e-3
56,96	251,92	2,670	99,493	-2,58259e-3
61,71	275,72	2,669	99,442	-6,46573e-3
66,46	298,48	2,663	99,205	-0,0146805
71,21	301,45	2,655	98,920	-0,0345665
75,96	299,67	2,648	98,666	0,257392
80,71	300,00	2,642	98,421	-0,0230716
85,46	300,04	2,635	98,170	-1,21563
90,21	299,99	2,628	97,927	6,21778
94,96	300,00	2,621	97,668	-17,8093
99,71	300,00	2,614	97,398	-19,7320
104,46	300,00	2,607	97,150	76,2559
109,21	300,00	2,601	96,900	15,7943
113,96	300,00	2,594	96,643	-36,5102
118,71	300,00	2,587	96,397	-47,4733
123,46	300,00	2,580	96,134	43,5656
128,21	300,00	2,574	95,893	28,0911
132,96	300,00	2,567	95,646	-43,0736
137,71	300,00	2,561	95,399	-53,4526
142,46	300,00	2,554	95,151	2,34544
147,21	300,00	2,548	94,925	34,7077
151,96	300,00	2,541	94,686	77,6801
156,71	300,00	2,535	94,458	17,5229
161,46	300,00	2,529	94,223	-18,1698
166,21	300,00	2,523	94,002	-52,7238
170,96	300,00	2,516	93,747	-48,6507
175,71	300,00	2,511	93,551	-12,9371
180,46	300,00	2,505	93,333	23,1248
185,21	300,00	2,499	93,125	18,9244
189,96	300,00	2,493	92,897	-46,3355
194,71	300,00	2,488	92,708	-4,47989
199,46	300,00	2,483	92,501	66,8609
204,21	300,00	2,477	92,296	110,405
208,96	300,00	2,472	92,091	-44,0006
213,71	300,00	2,467	91,915	-28,6035
218,46	300,00	2,461	91,702	-34,4781
223,21	300,00	2,457	91,525	-22,2323
227,96	300,00	2,451	91,333	-68,2904
232,71	300,00	2,447	91,159	-46,8510
237,46	300,00	2,442	90,968	-63,3253
242,21	300,00	2,437	90,803	-10,1678
246,96	300,00	2,433	90,635	60,4935
251,71	300,00	2,428	90,467	26,4157
256,46	300,00	2,425	90,338	-54,7166
261,21	300,00	2,421	90,183	-42,9331
265,96	300,00	2,417	90,044	44,2701
270,71	300,00	2,413	89,910	42,6674
275,46	300,00	2,409	89,772	-15,1156
280,21	300,00	2,406	89,628	46,2924
284,96	300,00	2,402	89,493	57,4195
289,71	300,00	2,398	89,360	2,99420
294,46	300,00	2,395	89,226	-49,0292
299,21	300,00	2,391	89,082	-19,3169
303,96	300,00	2,387	88,945	15,9481
308,71	300,00	2,384	88,816	-38,3707
313,46	300,00	2,380	88,680	3,49470
318,21	300,00	2,377	88,574	22,2632
322,96	300,00	2,374	88,456	22,2304
327,71	300,00	2,371	88,334	-31,8001
332,46	300,00	2,368	88,215	-11,6365
337,21	300,00	2,364	88,067	4,81671
341,96	300,00	2,361	87,960	-1,99619
346,71	300,00	2,358	87,840	-17,8584
351,46	300,00	2,355	87,728	19,8566
356,21	300,00	2,351	87,596	31,4540
360,96	300,00	2,348	87,497	-9,77780
365,71	300,00	2,345	87,370	-43,0497
370,46	300,00	2,341	87,227	-31,8407
375,21	300,00	2,339	87,128	47,0484
379,96	300,00	2,336	87,020	21,2955
384,71	300,00	2,333	86,917	30,7572
389,46	300,00	2,330	86,811	-19,2564
394,21	300,00	2,327	86,706	-13,3981
398,96	300,00	2,324	86,588	-15,1201
403,71	300,00	2,321	86,488	-24,0778
408,46	300,00	2,318	86,370	-15,7322
413,21	300,00	2,316	86,284	33,0833
417,96	300,00	2,313	86,161	18,6001
422,71	300,00	2,310	86,075	-19,3849
427,46	300,00	2,308	85,987	-34,2691
432,21	300,00	2,305	85,877	6,37185
436,96	300,00	2,302	85,770	26,2859
441,71	300,00	2,299	85,653	32,4714
446,46	300,00	2,296	85,559	-1,04873
451,21	300,00	2,294	85,461	4,45053
455,96	300,00	2,291	85,373	-6,80058
460,71	300,00	2,288	85,245	-10,1702
465,46	300,00	2,285	85,151	-17,5791
470,21	300,00	2,283	85,055	0,579671
474,96	300,00	2,280	84,962	-11,3190
479,71	300,00	2,278	84,866	20,1243
484,46	300,00	2,274	84,739	28,7148
489,21	300,00	2,272	84,654	-19,0481
493,96	300,00	2,270	84,557	-32,1758
498,71	300,00	2,267	84,466	7,54588
503,46	300,00	2,265	84,372	-10,3316
508,21	300,00	2,263	84,297	23,1102
512,96	300,00	2,259	84,183	-27,9782
517,71	300,00	2,257	84,084	-4,85712
522,46	300,00	2,254	83,988	15,5770
527,21	300,00	2,252	83,899	35,0043
531,96	300,00	2,249	83,788	40,1336
536,71	300,00	2,247	83,701	38,8942
541,46	300,00	2,244	83,605	-42,0597
546,21	300,00	2,241	83,502	-52,8905
550,96	300,00	2,239	83,420	-25,8543
555,71	300,00	2,236	83,298	31,0221
560,46	300,00	2,234	83,219	48,4902
565,21	300,00	2,231	83,121	40,1901
569,96	300,00	2,228	83,026	4,65267
574,71	300,00	2,226	82,926	-49,7173
579,46	300,00	2,223	82,825	-11,9023
584,21	300,00	2,221	82,744	-45,0557
588,96	300,00	2,218	82,645	-30,8229
593,71	300,00	2,216	82,554	43,8529
598,46	300,00	2,213	82,455	30,2776
603,21	300,00	2,211	82,365	-9,31512
607,96	300,00	2,209	82,289	31,4078
612,71	300,00	2,206	82,195	27,5217
617,46	300,00	2,203	82,094	-1,72964
622,21	300,00	2,201	81,996	-65,8802
626,96	300,00	2,198	81,885	-50,8893
631,71	300,00	2,196	81,817	-14,6444
636,46	300,00	2,193	81,711	44,0436
641,21	300,00	2,191	81,631	-7,30594
645,96	300,00	2,189	81,552	-11,5120
650,71	300,00	2,186	81,445	31,0539
655,46	300,00	2,184	81,372	-3,12692
660,21	300,00	2,182	81,282	-42,6692
664,96	300,00	2,179	81,198	-21,4436
669,71	300,00	2,177	81,109	21,0253
674,46	300,00	2,175	81,040	17,8835
679,21	300,00	2,173	80,943	3,04882
683,96	300,00	2,171	80,883	30,8161
688,71	300,00	2,169	80,803	19,3059
693,46	300,00	2,167	80,727	-3,75212
698,21	300,00	2,165	80,646	-24,7125
702,96	300,00	2,162	80,541	-40,1890
707,71	300,00	2,160	80,473	-10,5971
712,46	300,00	2,158	80,396	17,9171
717,21	300,00	2,155	80,309	9,47135
721,96	300,00	2,154	80,237	-52,1525
726,71	300,00	2,151	80,154	3,61115
731,46	300,00	2,150	80,089	22,9931
736,21	300,00	2,148	80,020	6,94276
740,96	300,00	2,146	79,943	16,0094
745,71	300,00	2,143	79,860	15,7950
750,46	300,00	2,142	79,797	-16,0625
755,21	300,00	2,140	79,716	-34,3236
759,96	300,00	2,137	79,630	-7,08693
764,71	300,00	2,135	79,558	15,2049
769,46	300,00	2,133	79,482	2,35750
774,21	300,00	2,131	79,392	15,8607
778,96	300,00	2,129	79,314	28,4219
783,71	300,00	2,127	79,260	30,1188
788,46	300,00	2,125	79,177	-38,9393
793,21	300,00	2,123	79,095	-46,3612
797,96	300,00	2,121	79,034	-29,2782
802,71	300,00	2,119	78,948	6,44786
807,46	300,00	2,117	78,861	23,2730
812,21	300,00	2,114	78,777	23,7663
816,96	300,00	2,112	78,704	-24,8972
821,71	300,00	2,110	78,614	9,68780
826,46	300,00	2,108	78,547	-4,07421
831,21	300,00	2,106	78,462	-24,9343
835,96	300,00	2,104	78,376	-34,0178
840,71	300,00	2,102	78,311	29,3860
845,46	300,00	2,100	78,223	47,7213
850,21	300,00	2,097	78,146	14,1117
854,96	300,00	2,096	78,081	-8,19357
859,71	300,00	2,093	77,996	1,43243
864,46	300,00	2,092	77,925	17,6678
869,21	300,00	2,090	77,854	-26,5878
873,96	300,00	2,087	77,761	-15,7256
878,71	300,00	2,086	77,702	-12,3941
883,46	300,00	2,084	77,639	23,3631
888,21	300,00	2,082	77,564	34,2913
892,96	300,00	2,080	77,494	21,3866
897,71	300,00	2,078	77,415	-14,3940
902,46	300,00	2,076	77,345	-23,2569
907,21	300,00	2,074	77,265	10,5524
911,96	300,00	2,072	77,196	-6,92731
916,71	300,00	2,070	77,119	-8,22538
921,46	300,00	2,068	77,035	-8,80193
926,21	300,00	2,066	76,973	-12,8608
930,96	300,00	2,064	76,893	-7,00160
935,71	300,00	2,062	76,814	4,45390
940,46	300,00	2,060	76,749	13,3930
945,21	300,00	2,058	76,671	13,0177
949,96	300,00	2,056	76,597	32,1926
954,71	300,00	2,054	76,528	-3,72951
959,46	300,00	2,052	76,455	5,81472
964,21	300,00	2,050	76,379	14,1217
968,96	300,00	2,048	76,317	-36,0064
973,71	300,00	2,046	76,244	-24,1156
978,46	300,00	2,044	76,171	3,83776
983,21	300,00	2,042	76,087	1,92666
987,96	300,00	2,040	76,011	-16,8332
992,71	300,00	2,038	75,932	25,5088
997,46	300,00	2,036	75,852	37,1113
1002,21	300,00	2,034	75,787	-9,52356
1006,96	300,00	2,033	75,733	-35,3194
1011,71	300,00	2,030	75,649	-21,9011
1016,46	300,00	2,029	75,594	-21,4852
1021,21	300,00	2,027	75,512	-23,9020
1025,96	300,00	2,024	75,428	4,81043
1030,71	300,00	2,023	75,357	25,2315
1035,46	300,00	2,021	75,297	6,85333
1040,21	300,00	2,019	75,211	9,69530
1044,96	300,00	2,017	75,147	-7,40963
1049,71	300,00	2,015	75,081	13,2746
1054,46	300,00	2,013	75,011	4,38092
1059,21	300,00	2,011	74,943	-20,3866
1063,96	300,00	2,009	74,868	-28,1104
1068,71	300,00	2,008	74,801	9,76432
1073,46	300,00	2,005	74,714	17,5346
1078,21	300,00	2,003	74,641	-11,2754
1082,96	300,00	2,002	74,574	-27,7246
1087,71	300,00	2,000	74,501	-12,6208
1092,46	300,00	1,998	74,423	33,7630
1097,21	300,00	1,996	74,374	17,5169
1101,96	300,00	1,994	74,300	13,8058
1106,71	300,00	1,992	74,227	-5,46688
1111,46	300,00	1,991	74,166	24,9801
1116,21	300,00	1,989	74,095	16,3920
1120,96	300,00	1,987	74,032	-24,3672
1125,71	300,00	1,985	73,952	-21,0756
1130,46	300,00	1,983	73,878	17,7951
1135,21	300,00	1,981	73,803	22,2851
1139,96	300,00	1,979	73,749	-0,0961696
1144,71	300,00	1,977	73,670	-0,260778
1149,46	300,00	1,975	73,600	16,4404
1154,21	300,00	1,974	73,532	-9,90583
1158,96	300,00	1,972	73,468	12,3613
1163,71	300,00	1,970	73,399	10,5376
1168,46	300,00	1,968	73,329	-23,2247
1173,21	300,00	1,967	73,274	22,5522
1177,96	300,00	1,965	73,195	24,6369
1182,71	300,00	1,963	73,130	1,14372
1187,46	300,00	1,961	73,060	-44,9284
1192,21	300,00	1,959	72,996	6,34034
1196,96	300,00	1,957	72,914	22,7135
1201,71	300,00	1,955	72,854	7,36362
1206,46	300,00	1,954	72,789	-3,44630
1211,21	300,00	1,952	72,728	6,86682
1215,96	300,00	1,949	72,623	11,3230
1220,71	299,99	1,948	72,580	11,0482
1225,46	300,00	1,946	72,513	-32,7369
1230,21	300,00	1,944	72,424	-34,3904
1234,96	300,00	1,942	72,350	-12,2223
1239,71	300,00	1,940	72,282	13,5270
1244,46	300,00	1,938	72,211	-6,41633
1249,21	300,00	1,936	72,136	2,31780
1253,96	300,00	1,934	72,073	31,0652
1258,71	300,00	1,932	71,997	-0,0104653
1263,46	300,00	1,931	71,932	-0,0118376
1268,21	322,72	1,929	71,872	-0,0880153
1272,96	369,18	1,873	69,782	-0,441050
1277,71	417,33	1,013	37,736	-0,617812
1282,46	464,94	-0,036	-1,355	-0,413561
1287,21	512,61	-0,052	-1,941	-0,0354818
1291,96	560,23	-0,052	-1,944	5,03254e-5
1296,71	607,83	-0,052	-1,926	6,88014e-4
1301,46	655,42	-0,050	-1,868	1,12503e-3
1306,21	702,99	-0,048	-1,804	1,42226e-3
1310,96	750,57	-0,046	-1,727	1,56645e-3
1314,54	786,44	-0,045	-1,672	1,59948e-3