File: data/TGA/005d-L_M/F4_000002 -temp_104 AMU_XIC
Time	Ion Current
min	mA
0.00	1.91158e-5
4.53	1.00000e-13
9.05	1.00000e-13
13.58	1.00000e-13
18.11	1.00000e-13
22.63	1.00000e-13
27.16	1.00000e-13
31.68	1.00000e-13
36.21	1.00000e-13
40.74	1.00000e-13
45.26	1.00000e-13
49.79	1.00000e-13
54.32	1.00000e-13
58.84	1.00000e-13
63.37	1.00000e-13
67.89	1.00000e-13
72.42	1.00000e-13
76.94	5.32926e-6
81.47	1.00000e-13
86.00	1.00000e-13
90.52	1.00000e-13
95.05	1.00000e-13
99.58	8.22560e-6
104.10	1.00000e-13
108.63	1.28597e-5
113.15	1.00000e-13
117.68	1.00000e-13
122.21	1.00000e-13
126.73	2.13170e-5
131.26	1.00000e-13
135.78	1.00000e-13
140.31	1.00000e-13
144.84	1.00000e-13
149.36	1.62195e-6
153.89	1.00000e-13
158.42	1.15853e-7
162.94	1.00000e-13
167.47	1.00000e-13
172.00	1.00000e-13
176.52	2.07378e-5
181.05	1.00000e-13
185.57	8.10974e-7
190.10	1.00000e-13
194.62	1.00000e-13
199.15	5.56097e-6
203.68	4.34451e-5
208.20	1.00000e-13
212.73	1.00000e-13
217.26	1.80731e-5
221.78	1.00000e-13
226.31	1.00000e-13
230.84	1.00000e-13
235.36	1.51768e-5
239.89	1.00000e-13
244.41	1.00000e-13
248.94	1.00000e-13
253.47	1.00000e-13
257.99	1.00000e-13
262.52	1.00000e-13
267.05	1.00000e-13
271.57	1.00000e-13
276.10	1.00000e-13
280.63	1.00000e-13
285.15	1.00000e-13
289.67	2.54878e-6
294.20	1.00000e-13
298.73	1.00000e-13
303.26	1.00000e-13
307.78	1.00000e-13
312.31	1.00000e-13
316.83	1.00000e-13
321.36	1.00000e-13
325.88	1.00000e-13
330.41	1.00000e-13
334.94	1.00000e-13
339.47	1.27439e-5
344.00	1.00000e-13
348.52	1.00000e-13
353.04	1.00000e-13
357.57	1.00000e-13
362.09	1.00000e-13
366.62	1.00000e-13
371.15	1.00000e-13
375.67	1.00000e-13
380.20	1.00000e-13
384.73	1.00000e-13
389.25	1.00000e-13
393.78	1.00000e-13
398.30	1.00000e-13
402.83	1.00000e-13
407.36	1.00000e-13
411.89	1.00000e-13
416.41	1.00000e-13
420.94	1.00000e-13
425.47	1.00000e-13
429.99	1.00000e-13
434.52	1.00000e-13
439.04	1.00000e-13
443.57	1.00000e-13
448.09	1.00000e-13
452.62	1.56402e-5
457.15	1.00000e-13
461.67	1.00000e-13
466.20	1.00000e-13
470.72	1.00000e-13
475.25	1.00000e-13
479.77	1.00000e-13
484.30	1.00000e-13
488.83	1.00000e-13
493.36	1.00000e-13
497.88	1.00000e-13
502.41	1.00000e-13
506.94	1.00000e-13
511.47	1.00000e-13
515.99	1.00000e-13
520.52	1.36707e-5
525.04	1.00000e-13
529.56	1.12378e-5
534.09	1.00000e-13
538.62	1.00000e-13
543.14	1.00000e-13
547.67	1.00000e-13
552.20	1.00000e-13
556.72	1.00000e-13
561.25	1.00000e-13
565.78	1.00000e-13
570.30	1.00000e-13
574.83	1.00000e-13
579.35	1.00000e-13
583.88	1.00000e-13
588.41	1.00000e-13
592.94	1.00000e-13
597.46	1.00000e-13
601.99	1.00000e-13
606.52	1.00000e-13
611.05	1.00000e-13
615.56	1.00000e-13
620.09	1.00000e-13
624.62	1.00000e-13
629.14	2.03902e-5
633.67	1.00000e-13
638.19	1.00000e-13
642.72	1.00000e-13
647.25	1.00000e-13
651.77	1.00000e-13
656.30	1.00000e-13
660.82	1.00000e-13
665.35	1.00000e-13
669.88	1.00000e-13
674.41	1.00000e-13
678.93	1.00000e-13
683.46	1.00000e-13
687.99	4.28658e-6
692.52	1.00000e-13
697.05	1.00000e-13
701.56	1.00000e-13
706.09	1.00000e-13
710.61	1.00000e-13
715.14	1.06585e-5
719.67	1.00000e-13
724.19	1.00000e-13
728.72	1.00000e-13
733.25	1.00000e-13
737.77	1.00000e-13
742.30	1.00000e-13
746.82	1.00000e-13
751.35	1.00000e-13
755.88	1.00000e-13
760.40	1.00000e-13
764.93	1.00000e-13
769.46	1.00000e-13
773.99	1.00000e-13
778.52	1.00000e-13
783.04	1.00000e-13
787.56	1.00000e-13
792.08	1.00000e-13
796.61	1.00000e-13
801.14	1.00000e-13
805.66	1.00000e-13
810.19	1.00000e-13
814.72	1.00000e-13
819.24	9.26828e-7
823.77	1.00000e-13
828.29	1.00000e-13
832.82	1.00000e-13
837.35	1.00000e-13
841.88	1.00000e-13
846.40	1.00000e-13
850.93	1.00000e-13
855.46	1.00000e-13
859.99	1.00000e-13
864.51	1.00000e-13
869.05	1.00000e-13
873.57	1.00000e-13
878.08	1.00000e-13
882.61	1.00000e-13
887.14	1.00000e-13
891.66	1.00000e-13
896.19	1.00000e-13
900.71	1.00000e-13
905.24	1.00000e-13
909.77	1.00000e-13
914.29	1.00000e-13
918.82	1.00000e-13
923.34	1.00000e-13
927.87	1.00000e-13
932.40	1.00000e-13
936.93	1.00000e-13
941.46	1.00000e-13
945.98	1.00000e-13
950.51	1.00000e-13
955.04	1.00000e-13
959.57	1.00000e-13
964.08	1.00000e-13
968.61	1.00000e-13
973.13	1.00000e-13
977.66	1.00000e-13
982.18	1.00000e-13
986.71	1.00000e-13
991.24	1.00000e-13
995.76	1.00000e-13
1000.29	1.00000e-13
1004.82	1.00000e-13
1009.34	1.00000e-13
1013.87	1.00000e-13
1018.40	1.00000e-13
1022.93	1.00000e-13
1027.45	1.00000e-13
1031.98	1.00000e-13
1036.51	1.00000e-13
1041.04	4.17073e-6
1045.57	1.00000e-13
1050.09	1.00000e-13
1054.60	1.00000e-13
1059.13	1.00000e-13
1063.66	1.00000e-13
1068.18	1.00000e-13
1072.71	2.43292e-6
1077.24	1.00000e-13
1081.76	1.00000e-13
1086.29	1.00000e-13
1090.82	1.00000e-13
1095.34	1.00000e-13
1099.87	1.00000e-13
1104.39	1.00000e-13
1108.92	1.00000e-13
1113.45	1.00000e-13
1117.98	1.00000e-13
1122.51	1.00000e-13
1127.04	1.00000e-13
1131.56	1.00000e-13
1136.09	8.68901e-6
1140.60	1.00000e-13
1145.13	1.00000e-13
1149.65	1.00000e-13
1154.18	1.00000e-13
1158.71	1.00000e-13
1163.23	1.00000e-13
1167.76	1.00000e-13
1172.29	1.00000e-13
1176.81	1.00000e-13
1181.34	1.00000e-13
1185.86	1.00000e-13
1190.39	1.00000e-13
1194.92	1.00000e-13
1199.45	1.00000e-13
1203.98	1.00000e-13
1208.50	1.00000e-13
1213.03	1.00000e-13
1217.56	5.90853e-6
1222.07	1.00000e-13
1226.62	1.00000e-13
1231.13	1.00000e-13
1235.65	1.00000e-13
1240.18	1.00000e-13
1244.70	3.47560e-7
1249.23	1.00000e-13
1253.76	1.00000e-13
1258.28	1.00000e-13
1262.81	1.00000e-13
1267.34	1.00000e-13
1271.86	1.81542e-4
1276.39	3.97598e-3
1280.92	0.0161589
1285.45	1.03944e-3
1289.98	1.67061e-4
1294.51	1.06585e-5
1299.03	3.46402e-5
1303.56	1.00000e-13
1308.09	1.00000e-13
1312.60	1.00000e-13
1314.23	1.00000e-13