File: data/TGA/005d-L_M/L1_000001 -temp_104 AMU_XIC
Time	Ion Current
min	mA
0.00	6.96279e-5
4.53	1.00000e-13
9.06	1.00000e-13
13.58	3.93902e-6
18.11	1.00000e-13
22.63	1.00000e-13
27.16	1.00000e-13
31.68	1.00000e-13
36.21	1.00000e-13
40.74	1.00000e-13
45.26	1.00000e-13
49.79	1.00000e-13
54.31	1.00000e-13
58.84	1.00000e-13
63.37	1.00000e-13
67.90	1.00000e-13
72.42	1.00000e-13
76.95	1.00000e-13
81.47	1.00000e-13
86.00	1.00000e-13
90.52	1.00000e-13
95.05	1.00000e-13
99.58	1.00000e-13
104.10	1.00000e-13
108.63	1.00000e-13
113.16	2.01585e-5
117.68	1.00000e-13
122.21	1.00000e-13
126.74	1.00000e-13
131.26	1.00000e-13
135.79	1.00000e-13
140.31	1.00000e-13
144.84	1.00000e-13
149.36	1.00000e-13
153.89	2.56036e-5
158.42	1.00000e-13
162.95	1.00000e-13
167.47	1.00000e-13
172.00	1.00000e-13
176.52	1.00000e-13
181.05	1.00000e-13
185.57	1.00000e-13
190.10	1.00000e-13
194.63	1.00000e-13
199.15	1.00000e-13
203.68	1.00000e-13
208.21	1.00000e-13
212.73	1.00000e-13
217.26	1.00000e-13
221.79	1.00000e-13
226.31	1.00000e-13
230.84	1.00000e-13
235.36	1.00000e-13
239.89	1.00000e-13
244.42	1.00000e-13
248.94	1.00000e-13
253.47	1.00000e-13
258.00	3.93902e-6
262.52	1.40183e-5
267.05	1.00000e-13
271.57	1.00000e-13
276.10	1.00000e-13
280.63	1.00000e-13
285.15	1.00000e-13
289.68	1.00000e-13
294.21	1.00000e-13
298.73	1.00000e-13
303.26	1.00000e-13
307.79	1.00000e-13
312.31	1.00000e-13
316.84	1.00000e-13
321.36	1.25122e-5
325.89	1.00000e-13
330.42	1.00000e-13
334.94	1.00000e-13
339.47	1.00000e-13
343.99	1.00000e-13
348.52	1.00000e-13
353.05	6.60365e-6
357.57	1.00000e-13
362.10	1.00000e-13
366.63	1.00000e-13
371.15	1.00000e-13
375.68	1.00000e-13
380.20	1.00000e-13
384.73	1.00000e-13
389.26	1.00000e-13
393.78	1.00000e-13
398.31	1.52927e-5
402.84	1.27439e-6
407.36	1.00000e-13
411.89	1.00000e-13
416.42	4.63414e-6
420.94	1.00000e-13
425.47	1.00000e-13
429.99	1.00000e-13
434.52	1.00000e-13
439.05	1.00000e-13
443.57	1.00000e-13
448.10	1.00000e-13
452.62	1.00000e-13
457.15	1.00000e-13
461.68	1.00000e-13
466.20	1.00000e-13
470.73	1.00000e-13
475.26	1.00000e-13
479.78	1.00000e-13
484.31	1.00000e-13
488.84	1.00000e-13
493.36	1.00000e-13
497.89	1.00000e-13
502.41	1.00000e-13
506.94	1.00000e-13
511.46	1.00000e-13
515.99	1.00000e-13
520.52	1.00000e-13
525.05	1.00000e-13
529.57	1.00000e-13
534.10	1.00000e-13
538.62	1.00000e-13
543.15	1.00000e-13
547.67	1.00000e-13
552.20	1.00000e-13
556.73	1.00000e-13
561.25	1.00000e-13
565.78	1.00000e-13
570.31	1.00000e-13
574.83	1.00000e-13
579.36	1.00000e-13
583.88	1.00000e-13
588.41	1.00000e-13
592.94	1.00000e-13
597.46	1.00000e-13
601.99	1.00000e-13
606.52	1.00000e-13
611.04	1.00000e-13
615.57	1.00000e-13
620.10	1.00000e-13
624.62	1.00000e-13
629.15	1.00000e-13
633.67	1.00000e-13
638.20	1.00000e-13
642.73	1.00000e-13
647.25	1.00000e-13
651.78	1.00000e-13
656.30	1.00000e-13
660.83	1.00000e-13
665.36	1.00000e-13
669.89	1.00000e-13
674.41	1.00000e-13
678.94	1.00000e-13
683.46	1.00000e-13
687.99	1.00000e-13
692.51	1.00000e-13
697.04	1.00000e-13
701.57	1.00000e-13
706.09	1.00000e-13
710.62	1.00000e-13
715.15	1.00000e-13
719.67	1.00000e-13
724.20	1.00000e-13
728.72	1.00000e-13
733.25	1.00000e-13
737.78	1.00000e-13
742.30	1.00000e-13
746.83	1.00000e-13
751.36	1.00000e-13
755.89	1.00000e-13
760.41	1.00000e-13
764.94	1.00000e-13
769.46	1.00000e-13
773.99	1.00000e-13
778.51	1.00000e-13
783.04	1.00000e-13
787.57	1.00000e-13
792.09	1.00000e-13
796.62	1.00000e-13
801.15	1.00000e-13
805.67	1.00000e-13
810.20	1.00000e-13
814.73	1.00000e-13
819.25	1.00000e-13
823.78	1.00000e-13
828.30	1.00000e-13
832.83	1.00000e-13
837.35	1.00000e-13
841.88	1.00000e-13
846.41	1.00000e-13
850.94	1.25122e-5
855.46	1.00000e-13
859.99	1.00000e-13
864.51	1.00000e-13
869.04	1.00000e-13
873.57	1.00000e-13
878.09	3.35975e-6
882.62	1.00000e-13
887.14	1.00000e-13
891.67	1.00000e-13
896.20	1.08902e-5
900.72	1.00000e-13
905.25	1.00000e-13
909.78	1.00000e-13
914.30	1.00000e-13
918.83	2.08536e-6
923.36	1.00000e-13
927.88	1.00000e-13
932.41	1.00000e-13
936.93	1.00000e-13
941.46	1.00000e-13
945.99	1.00000e-13
950.51	1.00000e-13
955.04	1.00000e-13
959.57	1.00000e-13
964.09	1.00000e-13
968.62	1.00000e-13
973.14	1.00000e-13
977.67	1.27439e-6
982.20	1.00000e-13
986.72	1.00000e-13
991.25	1.00000e-13
995.78	1.00000e-13
1000.30	1.00000e-13
1004.83	1.00000e-13
1009.35	1.00000e-13
1013.88	1.00000e-13
1018.41	1.00000e-13
1022.93	1.00000e-13
1027.46	1.00000e-13
1031.98	1.00000e-13
1036.51	1.00000e-13
1041.04	1.00000e-13
1045.56	1.00000e-13
1050.09	1.00000e-13
1054.61	1.00000e-13
1059.14	1.00000e-13
1063.67	1.00000e-13
1068.20	1.00000e-13
1072.72	1.00000e-13
1077.25	1.00000e-13
1081.77	1.00000e-13
1086.30	1.00000e-13
1090.82	1.00000e-13
1095.35	1.00000e-13
1099.88	1.00000e-13
1104.40	1.00000e-13
1108.93	1.00000e-13
1113.46	1.00000e-13
1117.99	1.00000e-13
1122.51	1.00000e-13
1127.04	1.00000e-13
1131.56	1.00000e-13
1136.09	1.00000e-13
1140.62	1.00000e-13
1145.14	1.00000e-13
1149.67	1.00000e-13
1154.19	1.00000e-13
1158.72	1.00000e-13
1163.25	5.90853e-6
1167.77	1.00000e-13
1172.30	1.00000e-13
1176.82	1.00000e-13
1181.35	1.00000e-13
1185.88	1.00000e-13
1190.41	1.00000e-13
1194.93	1.00000e-13
1199.46	1.00000e-13
1203.98	1.00000e-13
1208.51	1.00000e-13
1213.03	1.00000e-13
1217.56	1.47134e-5
1222.09	1.00000e-13
1226.61	1.00000e-13
1231.14	1.00000e-13
1235.67	1.00000e-13
1240.19	1.00000e-13
1244.72	1.00000e-13
1249.24	1.00000e-13
1253.77	1.00000e-13
1258.30	1.00000e-13
1262.83	1.00000e-13
1267.35	1.00000e-13
1271.88	4.33292e-5
1276.40	3.93288e-3
1280.93	0.0204981
1285.45	2.88371e-3
1289.98	3.64707e-4
1294.51	4.13597e-5
1299.03	1.00000e-13
1303.56	1.00000e-13
1308.09	1.00000e-13
1312.61	1.00000e-13
1314.23	1.00000e-13