File: data/TGA/005d-L_M/L2-corrected.txt
Filename	L2
Instrument name
Operator	Galyna
-correctrundate	2025-02-24
Sample name	L2
[step]
Step 1
Time	Temperature	Weight	Weight	Deriv. Weight
min	°C	mg	%	% / °C
0.02	27.06	1.563	100	-1.56652E-05
4.63	41.1	1.564	100.064	-2.06233E-05
9.29	63.72	1.559	99.7441	-3.51417E-05
13.96	86.66	1.56	99.8081	-7.73392E-05
18.63	102.97	1.546	98.9123	-0.000150576
23.29	100.76	1.54	98.5285	-0.000115606
27.96	108.18	1.538	98.4005	-5.61713E-05
32.63	130.51	1.533	98.0806	-6.12971E-05
37.29	153.86	1.527	97.6967	-7.98897E-05
41.96	177.36	1.518	97.1209	-9.67087E-05
46.63	200.71	1.507	96.4171	-0.000112185
51.29	224.05	1.495	95.6494	-0.000125031
55.96	247.43	1.48	94.6897	-0.00013344
60.63	270.8	1.466	93.794	-0.000150536
65.29	294.21	1.453	92.9623	-0.000199316
69.96	301.85	1.438	92.0026	-0.000312641
74.63	299.84	1.43	91.4907	0.0010115
79.29	299.89	1.426	91.2348	0.0014082
83.96	300.07	1.419	90.7869	-0.00558992
88.63	299.99	1.416	90.595	0.0197984
93.29	300	1.413	90.4031	0.0133076
97.96	300	1.413	90.4031	-0.0656361
102.63	300	1.406	89.9552	0.225487
107.29	300	1.405	89.8912	0.218809
111.96	300	1.403	89.7633	-0.0136552
116.63	300	1.4	89.5713	-0.366865
121.29	300	1.397	89.3794	-0.38967
125.96	300	1.392	89.0595	-0.372204
130.63	300	1.389	88.8676	-0.00966529
135.29	300	1.386	88.6756	0.062964
139.96	300	1.384	88.5477	0.0867413
144.63	300	1.382	88.4197	0.0862779
149.29	300	1.38	88.2917	0.0767486
153.96	300	1.378	88.1638	0.1614
158.63	300	1.375	87.9718	0.142808
163.29	300	1.373	87.8439	0.11058
167.96	300	1.371	87.7159	-0.187335
172.63	300	1.368	87.524	0.102792
177.29	300	1.367	87.46	-0.0712855
181.96	300	1.367	87.46	0.0236368
186.63	300	1.358	86.8842	0.0195622
191.29	300	1.358	86.8842	0.241782
195.96	300	1.354	86.6283	0.0840325
200.63	300	1.353	86.5643	0.173895
205.29	300	1.354	86.6283	0.139209
209.96	300	1.35	86.3724	-0.17621
214.63	300	1.347	86.1804	-0.196863
219.29	300	1.345	86.0525	-0.0109782
223.96	300	1.339	85.6686	0.245771
228.63	300	1.338	85.6046	0.0121419
233.29	300	1.338	85.6046	-0.0927357
237.96	300	1.334	85.3487	0.0133693
242.63	300	1.329	85.0288	0.23275
247.29	300	1.33	85.0928	0.0334851
251.96	300	1.326	84.8369	-0.167641
256.63	300	1.328	84.9648	0.0272946
261.29	300	1.323	84.6449	0.254517
265.96	300	1.32	84.453	0.236264
270.63	300	1.321	84.517	0.13192
275.29	300	1.316	84.1971	-0.188639
279.96	300	1.314	84.0691	-0.167767
284.63	300	1.311	83.8772	0.0584182
289.29	300	1.309	83.7492	0.113406
293.96	300	1.307	83.6212	-0.0580332
298.63	300	1.305	83.4933	0.118534
303.29	300	1.303	83.3653	0.182156
307.96	300	1.303	83.3653	0.0625842
312.63	300	1.301	83.2374	-0.0942228
317.29	300	1.298	83.0454	-0.180422
321.96	300	1.296	82.9175	-0.104946
326.63	300	1.296	82.9175	0.121816
331.29	300	1.292	82.6615	0.167006
335.96	300	1.29	82.5336	0.142224
340.63	300	1.29	82.5336	-0.0586135
345.29	300	1.289	82.4696	0.056747
349.96	300	1.285	82.2137	0.160988
354.63	300	1.285	82.2137	0.00330327
359.29	300	1.28	81.8938	-0.181375
363.96	300	1.279	81.8298	-0.00849674
368.63	300	1.274	81.5099	0.147348
373.29	300	1.277	81.7019	0.069945
377.96	300	1.275	81.5739	0.117379
382.63	300	1.273	81.4459	0.0979505
387.29	300	1.271	81.318	-0.12704
391.96	300	1.269	81.19	-0.0685851
396.63	300	1.268	81.126	0.197701
401.29	300	1.264	80.8701	0.297374
405.96	300	1.262	80.7422	-0.125344
410.63	300	1.26	80.6142	-0.285583
415.29	300	1.257	80.4223	-0.125131
419.96	300	1.256	80.3583	0.10533
424.63	300	1.253	80.1663	-0.0159099
429.29	300	1.248	79.8464	0.131391
433.96	300	1.247	79.7825	0.188652
438.63	300	1.245	79.6545	0.081896
443.29	300	1.241	79.3986	-0.194671
447.96	300	1.24	79.3346	0.0201625
452.63	300	1.238	79.2067	0.00916814
457.29	300	1.236	79.0787	0.0855126
461.96	300	1.234	78.9507	-0.0577338
466.63	300	1.231	78.7588	0.214785
471.29	300	1.229	78.6308	0.0905914
475.96	300	1.228	78.5669	-0.162711
480.63	300	1.225	78.3749	-0.0937861
485.29	300	1.223	78.247	0.0873623
489.96	300	1.221	78.119	0.03287
494.63	300	1.219	77.991	0.0801308
499.29	300	1.216	77.7991	-0.0745327
503.96	300	1.215	77.7351	0.00295097
508.63	300	1.214	77.6711	0.0182658
513.29	300	1.211	77.4792	0.182306
517.96	300	1.212	77.5432	0.175789
522.63	300	1.206	77.1593	-0.0435312
527.29	300	1.204	77.0313	6.46206E-05
531.96	300	1.204	77.0313	-0.0125203
536.63	300	1.202	76.9034	0.121022
541.29	300	1.202	76.9034	0.183623
545.96	300	1.197	76.5835	0.0869496
550.63	300	1.196	76.5195	0.0253978
555.29	300	1.196	76.5195	-0.0621642
559.96	300	1.194	76.3916	-0.125367
564.63	300	1.193	76.3276	0.0817117
569.29	300	1.186	75.8797	0.281381
573.96	300	1.191	76.1996	0.064721
578.63	300	1.187	75.9437	-0.115357
583.29	300	1.187	75.9437	0.0197565
587.96	300	1.184	75.7518	0.0920054
592.63	300	1.182	75.6238	-0.0404865
597.29	300	1.181	75.5598	-0.0518818
601.96	300	1.178	75.3679	0.210062
606.63	300	1.177	75.3039	0.224925
611.29	300	1.175	75.1759	-0.0574449
615.96	300	1.173	75.048	-0.0874984
620.63	300	1.171	74.92	0.11748
625.29	300	1.171	74.92	-0.0416224
629.96	300	1.168	74.7281	-0.035499
634.63	300	1.165	74.5361	0.129385
639.29	300	1.162	74.3442	0.153702
643.96	300	1.162	74.3442	-0.116187
648.63	300	1.161	74.2802	0.0556414
653.29	300	1.16	74.2163	0.101672
657.96	300	1.159	74.1523	-0.0203026
662.63	300	1.157	74.0243	0.151611
667.29	300	1.156	73.9603	0.0822814
671.96	300	1.156	73.9603	-0.0102592
676.63	300	1.151	73.6404	-0.104998
681.29	300	1.154	73.8324	0.0175003
685.96	300	1.147	73.3845	0.0209041
690.63	300	1.143	73.1286	0.0279267
695.29	300	1.145	73.2566	0.0286377
699.96	300	1.144	73.1926	-0.0244514
704.63	300	1.141	73.0006	0.0612346
709.29	300	1.14	72.9367	0.0996431
713.96	300	1.137	72.7447	0.130087
718.63	300	1.137	72.7447	0.103368
723.29	300	1.135	72.6168	-0.0254128
727.96	300	1.133	72.4888	-0.0554442
732.63	300	1.131	72.3608	-0.0574136
737.29	300	1.128	72.1689	0.214081
741.96	300	1.127	72.1049	-0.0438043
746.63	300	1.126	72.0409	-0.052816
751.29	300	1.124	71.913	0.129507
755.96	300	1.124	71.913	0.132762
760.63	300	1.12	71.6571	0.0242486
765.29	300	1.12	71.6571	0.180505
769.96	300	1.116	71.4012	0.122255
774.63	300	1.114	71.2732	-0.118681
779.29	300	1.108	70.8893	-0.117007
783.96	300	1.108	70.8893	0.0325586
788.63	300	1.112	71.1452	-0.00847122
793.29	300	1.103	70.5694	-0.0811375
797.96	300	1.104	70.6334	0.25492
802.63	300	1.099	70.3135	0.223264
807.29	300	1.1	70.3775	-0.0604104
811.96	300	1.098	70.2495	-0.100009
816.63	300	1.097	70.1855	0.182166
821.29	300	1.095	70.0576	0.0647624
825.96	300	1.093	69.9296	-0.128933
830.63	300	1.092	69.8656	0.0475817
835.29	300	1.09	69.7377	0.0333166
839.96	300	1.088	69.6097	-0.164725
844.63	300	1.087	69.5457	-0.228495
849.29	300	1.085	69.4178	0.195149
853.96	300	1.083	69.2898	-0.0162042
858.63	300	1.08	69.0979	-0.0170416
863.29	300	1.08	69.0979	0.0535207
867.96	300	1.079	69.0339	0.125654
872.63	300	1.077	68.906	0.0222353
877.29	300	1.079	69.0339	-0.132259
881.96	300	1.074	68.714	0.105904
886.63	300	1.076	68.842	-0.0335942
891.29	300	1.074	68.714	0.0130499
895.96	300	1.072	68.5861	0.0255556
900.63	300	1.07	68.4581	0.0958811
905.29	300	1.07	68.4581	0.0309172
909.96	300	1.07	68.4581	0.0340401
914.63	300	1.072	68.5861	-0.0515624
919.29	300	1.066	68.2022	0.0462878
923.96	300	1.066	68.2022	-0.0627223
928.63	300	1.064	68.0742	0.0888479
933.29	300	1.064	68.0742	0.0474315
937.96	300	1.061	67.8823	0.0195534
942.63	300	1.063	68.0102	0.105748
947.29	300	1.063	68.0102	0.138828
951.96	300	1.058	67.6903	0.0204409
956.63	300	1.06	67.8183	-0.0897464
961.29	300	1.057	67.6264	0.137157
965.96	300	1.059	67.7543	0.172398
970.63	300	1.056	67.5624	0.00289874
975.29	300	1.056	67.5624	0.0213999
979.96	300	1.052	67.3065	0.110965
984.63	300	1.052	67.3065	0.092573
989.29	300	1.053	67.3704	-0.0595379
993.96	300	1.047	66.9866	-0.181932
998.63	300	1.045	66.8586	-0.219468
1003.29	300	1.046	66.9226	-0.140262
1007.96	300	1.04	66.5387	0.120772
1012.63	300	1.04	66.5387	0.129027
1017.29	300	1.037	66.3468	0.0330354
1021.96	300	1.038	66.4107	0.0817347
1026.63	300	1.036	66.2828	0.0668431
1031.29	300	1.035	66.2188	0.0392843
1035.96	300	1.029	65.8349	0.00303994
1040.63	300	1.029	65.8349	-0.205592
1045.29	300	1.026	65.643	-0.21586
1049.96	300	1.026	65.643	-0.017985
1054.63	300	1.023	65.4511	0.178962
1059.29	300	1.023	65.4511	0.0615711
1063.96	300	1.021	65.3231	0.107872
1068.63	300	1.021	65.3231	0.0954384
1073.29	300	1.018	65.1312	0.136933
1077.96	300	1.016	65.0032	0.0525517
1082.63	300	1.018	65.1312	-0.0884156
1087.29	300	1.012	64.7473	-0.17948
1091.96	300	1.011	64.6833	-0.134576
1096.63	300	1.007	64.4274	0.00566917
1101.29	300	1.007	64.4274	0.182726
1105.96	300	1.004	64.2354	0.135827
1110.63	300	1.005	64.2994	0.00363326
1115.29	300	1.005	64.2994	-0.124676
1119.96	300	1.001	64.0435	0.0524049
1124.63	300	1.001	64.0435	0.136908
1129.29	300	0.998	63.8516	-0.0797446
1133.96	300	0.999	63.9155	-0.208883
1138.63	300	0.994	63.5956	0.107303
1143.29	300	0.993	63.5317	0.164263
1147.96	300	0.99	63.3397	0.0541115
1152.63	300	0.99	63.3397	0.0959516
1157.29	300	0.988	63.2118	0.153839
1161.96	300	0.99	63.3397	0.102089
1166.63	300	0.986	63.0838	-0.0841834
1171.29	300	0.985	63.0198	-0.129147
1175.96	300	0.983	62.8919	-0.176022
1180.63	300	0.977	62.508	-0.0194615
1185.29	300	0.977	62.508	0.0486077
1189.96	300	0.976	62.444	0.040636
1194.63	300	0.977	62.508	0.050056
1199.29	300	0.973	62.2521	0.1053
1203.96	300	0.977	62.508	-0.0124773
1208.63	300	0.972	62.1881	-0.0759012
1213.29	300	0.97	62.0601	-0.089694
1217.96	300	0.968	61.9322	-0.141713
1222.63	300	0.964	61.6763	0.0338901
1227.29	300	0.96	61.4203	0.247489
1231.96	300	0.962	61.5483	0.062921
1236.63	300	0.962	61.5483	-0.0450267
1241.29	300	0.959	61.3564	0.0682614
1245.96	300	0.96	61.4203	0.100259
1250.63	300	0.959	61.3564	-0.0335736
1255.29	300	0.956	61.1644	-0.221725
1259.96	300	0.952	60.9085	-4.56046E-05
1264.63	300.01	0.95	60.7806	-0.000099281
1269.29	333.92	0.946	60.5246	-0.000743535
1273.96	380.57	0.86	55.0224	-0.00293247
1278.63	427.68	-0.227	-14.5234	-0.00375102
1283.29	474.46	-1.007	-64.4274	-0.00227619
1287.96	521.29	-1.009	-64.5553	-0.000158394
1292.63	568.07	-1.011	-64.6833	3.40329E-06
1297.29	614.83	-1.008	-64.4914	9.79078E-06
1301.96	661.59	-1.006	-64.3634	1.24771E-05
1306.63	708.33	-1.004	-64.2354	0.000020489
1311.29	755.06	-0.993	-63.5317	2.51494E-05
1314.46	786.76	-0.995	-63.6596	3.40717E-05