File: data/TGA/005d-L_M/L2.txt
Filename	L2
Instrument name
Operator	Galyna
-correctrundate	2025-02-24
Sample name	L2
[step]
Step 1
Time	Temperature	Weight	Weight	Deriv. Weight
min	°C	mg	%	% / °C
0.02	27.06	433.173	100.000	-1.56652e-5
5.21	44.13	433.172	100.000	-2.25170e-5
10.46	69.22	433.161	99.998	-4.45984e-5
15.71	95.58	433.163	99.998	-9.78812e-5
20.96	102.26	433.153	99.996	-1.87766e-4
26.21	101.35	433.150	99.995	-5.84809e-5
31.46	124.94	433.146	99.994	-5.67129e-5
36.71	150.90	433.137	99.992	-7.78370e-5
41.96	177.36	433.128	99.990	-9.67087e-5
47.21	203.62	433.115	99.987	-1.14275e-4
52.46	229.89	433.101	99.984	-1.27889e-4
57.71	256.20	433.087	99.981	-1.36665e-4
62.96	282.49	433.071	99.977	-1.69692e-4
68.21	301.42	433.052	99.973	-2.53010e-4
73.46	300.22	433.041	99.970	-3.44768e-4
78.71	299.83	433.037	99.969	1.46381e-3
83.96	300.07	433.029	99.967	-5.58992e-3
89.21	299.99	433.025	99.966	0.0214610
94.46	300.00	433.022	99.966	-0.0326669
99.71	300.00	433.019	99.965	0.0382810
104.96	300.00	433.017	99.964	0.246892
110.21	300.00	433.014	99.964	0.169189
115.46	300.00	433.011	99.963	-0.399430
120.71	300.00	433.007	99.962	-0.371435
125.96	300.00	433.002	99.961	-0.372204
131.21	300.00	432.996	99.960	-0.0227499
136.46	300.00	432.994	99.959	0.0393983
141.71	300.00	432.994	99.959	0.0309013
146.96	300.00	432.991	99.958	0.234529
152.21	300.00	432.993	99.959	0.0402814
157.46	300.00	432.987	99.957	0.157099
162.71	300.00	432.985	99.957	0.143568
167.96	300.00	432.981	99.956	-0.187335
173.21	300.00	432.980	99.956	0.113705
178.46	300.00	432.976	99.955	-1.30713e-3
183.71	300.00	432.973	99.954	-0.111204
188.96	300.00	432.969	99.953	0.210448
194.21	300.00	432.966	99.953	9.68526e-3
199.46	300.00	432.963	99.952	0.174366
204.71	300.00	432.963	99.952	0.154333
209.96	300.00	432.960	99.951	-0.176210
215.21	300.00	432.957	99.951	-0.168568
220.46	300.00	432.954	99.950	0.0250629
225.71	300.00	432.948	99.949	0.217319
230.96	300.00	432.946	99.948	-0.0602383
236.21	300.00	432.945	99.948	3.02100e-3
241.46	300.00	432.942	99.947	0.223585
246.71	300.00	432.941	99.947	0.0745005
251.96	300.00	432.936	99.946	-0.167641
257.21	300.00	432.934	99.945	0.0723864
262.46	300.00	432.934	99.945	0.241269
267.71	300.00	432.929	99.944	0.255107
272.96	300.00	432.929	99.944	-0.111563
278.21	300.00	432.928	99.944	-0.213158
283.46	300.00	432.923	99.943	-1.51295e-3
288.71	300.00	432.918	99.942	0.121469
293.96	300.00	432.917	99.941	-0.0580332
299.21	300.00	432.915	99.941	0.117699
304.46	300.00	432.912	99.940	0.201820
309.71	300.00	432.912	99.940	-0.0174618
314.96	300.00	432.907	99.939	-0.0876655
320.21	300.00	432.908	99.939	-0.177774
325.46	300.00	432.905	99.939	0.0916376
330.71	300.00	432.900	99.938	0.147068
335.96	300.00	432.900	99.937	0.142224
341.21	300.00	432.898	99.937	-0.0232328
346.46	300.00	432.895	99.936	0.0465871
351.71	300.00	432.894	99.936	0.162102
356.96	300.00	432.894	99.936	-0.161736
362.21	300.00	432.887	99.935	-0.0710585
367.46	300.00	432.883	99.934	0.0983274
372.71	300.00	432.885	99.934	0.0379023
377.96	300.00	432.885	99.934	0.117379
383.21	300.00	432.881	99.933	0.0977568
388.46	300.00	432.884	99.934	-0.158968
393.71	300.00	432.875	99.932	0.116008
398.96	300.00	432.877	99.932	0.266366
404.21	300.00	432.876	99.932	0.0435294
409.46	300.00	432.872	99.931	-0.289646
414.71	300.00	432.869	99.930	-0.179521
419.96	300.00	432.866	99.930	0.105330
425.21	300.00	432.865	99.929	0.0227180
430.46	300.00	432.859	99.928	0.144630
435.71	300.00	432.857	99.928	0.111706
440.96	300.00	432.853	99.927	-0.186954
446.21	300.00	432.849	99.926	-0.0188224
451.46	300.00	432.847	99.925	5.12752e-3
456.71	300.00	432.846	99.925	0.0929539
461.96	300.00	432.844	99.924	-0.0577338
467.21	300.00	432.843	99.924	0.199307
472.46	300.00	432.839	99.923	0.0264368
477.71	300.00	432.836	99.923	-0.147859
482.96	300.00	432.834	99.922	-0.0333373
488.21	300.00	432.835	99.922	0.0576557
493.46	300.00	432.831	99.921	-0.0182367
498.71	300.00	432.827	99.921	-0.0470114
503.96	300.00	432.825	99.920	2.95097e-3
509.21	300.00	432.823	99.920	0.0379414
514.46	300.00	432.820	99.919	0.0869008
519.71	300.00	432.823	99.920	0.0107276
524.96	300.00	432.817	99.918	-0.0167389
530.21	300.00	432.815	99.918	0.0211305
535.46	300.00	432.815	99.918	0.125079
540.71	300.00	432.812	99.917	0.179304
545.96	300.00	432.807	99.916	0.0869496
551.21	300.00	432.809	99.917	-0.0155460
556.46	300.00	432.805	99.916	-0.0871132
561.71	300.00	432.804	99.915	-0.0576741
566.96	300.00	432.803	99.915	0.254190
572.21	300.00	432.800	99.914	0.112058
577.46	300.00	432.799	99.914	-0.145718
582.71	300.00	432.796	99.913	3.29456e-3
587.96	300.00	432.794	99.913	0.0920054
593.21	300.00	432.796	99.913	-0.0792422
598.46	300.00	432.786	99.911	-0.0187495
603.71	300.00	432.788	99.912	0.265073
608.96	300.00	432.787	99.911	0.0998818
614.21	300.00	432.783	99.910	-0.0621212
619.46	300.00	432.780	99.910	0.0872257
624.71	300.00	432.780	99.910	-0.0129315
629.96	300.00	432.778	99.909	-0.0354990
635.21	300.00	432.776	99.909	0.148171
640.46	300.00	432.773	99.908	0.0982268
645.71	300.00	432.772	99.908	-0.0737439
650.96	300.00	432.770	99.907	0.164531
656.21	300.00	432.768	99.907	-0.0333816
661.46	300.00	432.768	99.907	0.107090
666.71	300.00	432.761	99.905	0.0544923
671.96	300.00	432.766	99.906	-0.0102592
677.21	300.00	432.761	99.905	-0.109975
682.46	300.00	432.759	99.905	-0.0495650
687.71	300.00	432.758	99.905	0.0968615
692.96	300.00	432.752	99.903	-3.52975e-3
698.21	300.00	432.754	99.904	0.111327
703.46	300.00	432.752	99.903	0.0256628
708.71	300.00	432.749	99.903	0.0516183
713.96	300.00	432.747	99.902	0.130087
719.21	300.00	432.745	99.902	0.157361
724.46	300.00	432.744	99.901	-0.0929745
729.71	300.00	432.742	99.901	-0.0841932
734.96	300.00	432.738	99.900	0.125893
740.21	300.00	432.738	99.900	0.0270578
745.46	300.00	432.737	99.900	-0.0240292
750.71	300.00	432.733	99.899	0.0985292
755.96	300.00	432.734	99.899	0.132762
761.21	300.00	432.728	99.898	0.0551191
766.46	300.00	432.728	99.898	0.219398
771.71	300.00	432.725	99.897	0.0303647
776.96	300.00	432.723	99.897	-0.189895
782.21	300.00	432.721	99.896	-0.0769611
787.46	300.00	432.721	99.896	0.0136079
792.71	300.00	432.717	99.895	-0.0667410
797.96	300.00	432.714	99.895	0.254920
803.21	300.00	432.714	99.895	0.203933
808.46	300.00	432.709	99.893	-0.127884
813.71	300.00	432.710	99.894	0.0810721
818.96	300.00	432.701	99.891	0.247545
824.21	300.00	432.704	99.892	-0.0936260
829.46	300.00	432.701	99.892	-0.0293554
834.71	300.00	432.699	99.891	0.0279941
839.96	300.00	432.698	99.891	-0.164725
845.21	300.00	432.696	99.890	-0.191304
850.46	300.00	432.693	99.890	0.159341
855.71	300.00	432.692	99.889	-0.0323081
860.96	300.00	432.691	99.889	0.0163661
866.21	300.00	432.691	99.889	0.141249
871.46	300.00	432.688	99.889	0.0129679
876.71	300.00	432.686	99.888	-0.126533
881.96	300.00	432.684	99.888	0.105904
887.21	300.00	432.683	99.887	-0.0371317
892.46	300.00	432.684	99.888	0.0202474
897.71	300.00	432.683	99.887	0.0665571
902.96	300.00	432.682	99.887	0.124773
908.21	300.00	432.681	99.887	0.0428711
913.46	300.00	432.681	99.887	-0.0461805
918.71	300.00	432.680	99.887	0.0612643
923.96	300.00	432.676	99.886	-0.0627223
929.21	300.00	432.676	99.886	0.0868007
934.46	300.00	432.674	99.885	0.0399987
939.71	300.00	432.671	99.885	-0.0272672
944.96	300.00	432.669	99.884	0.142381
950.21	300.00	432.668	99.884	0.0669145
955.46	300.00	432.671	99.885	-0.0723814
960.71	300.00	432.669	99.884	0.0704424
965.96	300.00	432.669	99.884	0.172398
971.21	300.00	432.665	99.883	-0.0420875
976.46	300.00	432.662	99.882	0.0663068
981.71	300.00	432.661	99.882	0.109763
986.96	300.00	432.660	99.882	0.0591889
992.21	300.00	432.656	99.881	-0.147783
997.46	300.00	432.656	99.881	-0.224352
1002.71	300.00	432.653	99.880	-0.182106
1007.96	300.00	432.650	99.880	0.120772
1013.21	300.00	432.647	99.879	0.0795271
1018.46	300.00	432.647	99.879	0.0438265
1023.71	300.00	432.646	99.879	0.0495774
1028.96	300.00	432.644	99.878	0.0615740
1034.21	300.00	432.642	99.878	0.0897293
1039.46	300.00	432.638	99.877	-0.150615
1044.71	300.00	432.639	99.877	-0.223820
1049.96	300.00	432.636	99.876	-0.0179850
1055.21	300.00	432.635	99.876	0.147616
1060.46	300.00	432.629	99.875	0.0650804
1065.71	300.00	432.629	99.875	0.107182
1070.96	300.00	432.630	99.875	0.120057
1076.21	300.00	432.626	99.874	0.0411184
1081.46	300.00	432.625	99.874	-0.0843233
1086.71	300.00	432.619	99.873	-0.179604
1091.96	300.00	432.621	99.873	-0.134576
1097.21	300.00	432.618	99.872	0.0233724
1102.46	300.00	432.618	99.872	0.144350
1107.71	300.00	432.615	99.872	0.110329
1112.96	300.00	432.616	99.872	-0.105407
1118.21	300.00	432.614	99.871	-0.0266951
1123.46	300.00	432.612	99.871	0.156523
1128.71	300.00	432.609	99.870	-0.0309845
1133.96	300.00	432.609	99.870	-0.208883
1139.21	300.00	432.603	99.869	0.154363
1144.46	300.00	432.604	99.869	0.118242
1149.71	300.00	432.601	99.868	0.0654623
1154.96	300.00	432.599	99.868	0.125449
1160.21	300.00	432.598	99.868	0.154726
1165.46	300.00	432.598	99.868	-0.0622728
1170.71	300.00	432.595	99.867	-0.0588229
1175.96	300.00	432.593	99.867	-0.176022
1181.21	300.00	432.591	99.866	1.92983e-3
1186.46	300.00	432.593	99.867	0.0464068
1191.71	300.00	432.585	99.865	0.0343198
1196.96	300.00	432.581	99.864	0.0860286
1202.21	300.00	432.583	99.864	0.0330891
1207.46	300.00	432.582	99.864	-0.0704806
1212.71	300.00	432.580	99.864	-0.0813560
1217.96	300.00	432.578	99.863	-0.141713
1223.21	300.00	432.575	99.862	0.157108
1228.46	300.00	432.573	99.862	0.206391
1233.71	300.00	432.570	99.861	0.0136904
1238.96	300.00	432.573	99.862	0.0385433
1244.21	300.00	432.567	99.860	0.0997265
1249.46	300.00	432.569	99.861	0.0141685
1254.71	300.00	432.564	99.860	-0.220057
1259.96	300.00	432.562	99.860	-4.56046e-5
1265.21	300.71	432.560	99.859	-1.25006e-4
1270.46	345.17	432.554	99.858	-1.21332e-3
1275.71	398.35	432.300	99.799	-3.50948e-3
1280.96	451.07	430.689	99.427	-3.28386e-3
1286.21	503.74	430.598	99.406	-7.11620e-4
1291.46	556.37	430.606	99.408	2.25824e-6
1296.71	608.99	430.602	99.407	8.61099e-6
1301.96	661.59	430.604	99.407	1.24771e-5
1307.21	714.17	430.610	99.409	2.11253e-5
1312.46	766.74	430.624	99.412	2.84959e-5
1314.46	786.76	430.615	99.410	3.40717e-5