File: data/TGA/005d-L_M/L2_000001 -temp_104 AMU_XIC
Time	Ion Current
min	mA
0.00	2.32518e-4
4.53	2.15835e-4
9.05	2.31359e-4
13.58	2.00079e-4
18.11	1.32421e-4
22.64	1.05311e-4
27.16	8.00548e-5
31.69	5.81584e-5
36.21	4.83109e-5
40.74	6.12865e-5
45.27	5.08597e-5
49.79	1.00000e-13
54.32	1.21646e-5
58.84	1.00000e-13
63.37	1.11219e-5
67.90	1.00000e-13
72.42	6.83536e-6
76.95	6.95121e-7
81.48	1.00000e-13
86.00	8.57316e-6
90.53	3.47560e-6
95.06	1.00000e-13
99.58	1.00000e-13
104.11	5.56097e-6
108.64	1.00000e-13
113.17	1.00000e-13
117.69	8.45730e-6
122.22	1.00000e-13
126.74	1.00000e-13
131.27	9.49998e-6
135.80	1.00000e-13
140.32	1.00000e-13
144.85	9.15242e-6
149.38	1.00000e-13
153.90	1.00000e-13
158.43	1.63353e-5
162.96	1.00000e-13
167.48	1.00000e-13
172.01	1.00000e-13
176.54	1.00000e-13
181.06	1.00000e-13
185.59	1.00000e-13
190.11	1.00000e-13
194.64	1.00000e-13
199.17	1.00000e-13
203.69	1.00000e-13
208.22	1.04268e-6
212.75	1.00000e-13
217.27	1.00000e-13
221.80	1.00000e-13
226.32	1.00000e-13
230.85	1.00000e-13
235.38	1.00000e-13
239.91	3.12804e-6
244.43	1.00000e-13
248.96	1.00000e-13
253.49	1.00000e-13
258.01	1.00000e-13
262.54	1.00000e-13
267.06	1.00000e-13
271.59	1.00000e-13
276.12	1.00000e-13
280.65	1.00000e-13
285.17	1.00000e-13
289.70	1.00000e-13
294.22	1.00000e-13
298.75	1.00000e-13
303.28	1.00000e-13
307.80	4.63414e-6
312.33	1.00000e-13
316.85	1.00000e-13
321.38	1.00000e-13
325.91	1.00000e-13
330.43	1.00000e-13
334.96	1.50610e-6
339.49	1.00000e-13
344.01	1.00000e-13
348.54	1.00000e-13
353.07	1.00000e-13
357.59	1.00000e-13
362.12	1.00000e-13
366.65	1.00000e-13
371.17	1.00000e-13
375.70	1.00000e-13
380.23	1.00000e-13
384.75	1.00000e-13
389.28	1.00000e-13
393.81	1.00000e-13
398.33	1.00000e-13
402.86	1.00000e-13
407.39	1.00000e-13
411.91	1.00000e-13
416.44	1.00000e-13
420.96	1.85366e-6
425.49	1.00000e-13
430.02	1.00000e-13
434.54	1.00000e-13
439.07	1.00000e-13
443.60	1.00000e-13
448.13	1.00000e-13
452.65	1.00000e-13
457.18	1.00000e-13
461.70	1.00000e-13
466.23	1.00000e-13
470.76	2.66463e-6
475.28	1.00000e-13
479.81	1.00000e-13
484.33	1.00000e-13
488.86	1.76097e-5
493.39	1.00000e-13
497.91	1.00000e-13
502.44	1.00000e-13
506.97	1.00000e-13
511.49	1.00000e-13
516.02	1.00000e-13
520.55	1.50610e-5
525.07	1.00000e-13
529.60	1.00000e-13
534.13	1.00000e-13
538.65	1.00000e-13
543.18	1.00000e-13
547.71	6.48779e-6
552.23	1.00000e-13
556.76	1.00000e-13
561.29	1.00000e-13
565.81	1.00000e-13
570.34	1.00000e-13
574.86	2.31707e-7
579.39	1.00000e-13
583.92	1.00000e-13
588.44	1.00000e-13
592.97	1.00000e-13
597.50	1.00000e-13
602.02	1.00000e-13
606.55	1.00000e-13
611.08	1.00000e-13
615.60	1.00000e-13
620.13	1.00000e-13
624.66	1.00000e-13
629.18	1.00000e-13
633.71	1.00000e-13
638.24	1.00000e-13
642.76	1.00000e-13
647.29	1.00000e-13
651.82	1.00000e-13
656.34	1.00000e-13
660.87	1.00000e-13
665.39	1.00000e-13
669.92	1.00000e-13
674.45	1.00000e-13
678.98	1.00000e-13
683.50	1.00000e-13
688.03	1.00000e-13
692.56	1.00000e-13
697.08	1.00000e-13
701.61	1.00000e-13
706.14	1.00000e-13
710.66	1.00000e-13
715.19	1.00000e-13
719.71	1.00000e-13
724.24	2.43292e-6
728.77	1.00000e-13
733.29	1.00000e-13
737.82	1.00000e-13
742.35	1.00000e-13
746.87	1.00000e-13
751.40	1.00000e-13
755.93	1.00000e-13
760.45	1.00000e-13
764.98	1.00000e-13
769.50	1.00000e-13
774.03	1.00000e-13
778.56	1.00000e-13
783.08	1.05427e-5
787.61	1.00000e-13
792.14	1.00000e-13
796.66	1.00000e-13
801.19	1.00000e-13
805.72	1.00000e-13
810.24	1.00000e-13
814.77	1.00000e-13
819.30	1.00000e-13
823.82	1.39024e-5
828.35	1.00000e-13
832.88	1.00000e-13
837.40	1.00000e-13
841.93	1.00000e-13
846.46	1.00000e-13
850.98	1.00000e-13
855.51	1.00000e-13
860.03	1.00000e-13
864.56	1.00000e-13
869.09	1.00000e-13
873.62	1.00000e-13
878.14	1.00000e-13
882.67	1.00000e-13
887.19	1.00000e-13
891.72	1.00000e-13
896.25	1.00000e-13
900.77	4.86585e-6
905.30	1.00000e-13
909.83	1.00000e-13
914.35	1.49451e-5
918.88	1.00000e-13
923.40	1.00000e-13
927.93	1.00000e-13
932.46	1.00000e-13
936.98	1.00000e-13
941.51	1.00000e-13
946.04	1.00000e-13
950.56	1.00000e-13
955.09	1.00000e-13
959.62	1.27439e-5
964.14	1.00000e-13
968.67	1.00000e-13
973.20	1.00000e-13
977.72	1.00000e-13
982.25	1.00000e-13
986.78	1.00000e-13
991.30	1.00000e-13
995.83	1.00000e-13
1000.36	1.00000e-13
1004.88	1.00000e-13
1009.41	1.00000e-13
1013.93	2.31707e-7
1018.46	1.00000e-13
1022.99	1.00000e-13
1027.51	1.00000e-13
1032.04	1.00000e-13
1036.57	1.00000e-13
1041.09	1.00000e-13
1045.62	1.00000e-13
1050.15	1.00000e-13
1054.67	2.09695e-5
1059.20	1.00000e-13
1063.72	1.00000e-13
1068.25	1.00000e-13
1072.78	1.00000e-13
1077.31	1.00000e-13
1081.83	1.00000e-13
1086.36	1.00000e-13
1090.89	1.00000e-13
1095.41	1.00000e-13
1099.94	1.00000e-13
1104.46	1.00000e-13
1108.99	1.00000e-13
1113.52	7.87804e-6
1118.05	1.00000e-13
1122.57	1.00000e-13
1127.10	1.00000e-13
1131.62	1.00000e-13
1136.15	1.00000e-13
1140.67	1.00000e-13
1145.20	1.00000e-13
1149.73	1.00000e-13
1154.25	1.00000e-13
1158.78	1.00000e-13
1163.31	1.39024e-5
1167.84	1.00000e-13
1172.36	1.00000e-13
1176.89	1.00000e-13
1181.41	1.00000e-13
1185.94	1.00000e-13
1190.47	4.74999e-6
1194.99	1.00000e-13
1199.52	1.00000e-13
1204.05	1.00000e-13
1208.57	1.00000e-13
1213.10	1.00000e-13
1217.63	1.00000e-13
1222.15	1.00000e-13
1226.68	1.00000e-13
1231.21	1.00000e-13
1235.73	1.00000e-13
1240.26	1.00000e-13
1244.78	1.00000e-13
1249.31	1.00000e-13
1253.84	1.00000e-13
1258.36	1.00000e-13
1262.89	1.00000e-13
1267.42	1.00000e-13
1271.94	1.00000e-13
1276.47	1.04384e-4
1281.00	4.22738e-3
1285.52	4.97046e-3
1290.05	2.61771e-3
1294.58	1.61813e-3
1299.10	7.33700e-4
1303.63	4.16725e-4
1308.16	2.94500e-4
1312.68	1.28134e-4
1314.14	1.35433e-4