File: data/TGA/005d-L_M/L3-corrected.txt
Filename	L3
Instrument name
Operator	Galyna
rundate	2025-02-24
Sample name	L3
[step]
Step 1
Time	Temperature	Weight	Weight	Deriv. Weight
min	°C	mg	%	% / °C
0.01	25.98	1.798	100	-2.13348E-05
4.71	40.24	1.797	99.9444	-1.86836E-05
9.46	63.33	1.793	99.7219	-2.56944E-05
14.21	86.6	1.791	99.6107	-6.42281E-05
18.96	102.96	1.782	99.1101	-0.000137145
23.71	100.65	1.774	98.6652	-0.00011414
28.46	109.52	1.774	98.6652	-8.44278E-05
33.21	132.27	1.763	98.0534	-7.47884E-05
37.96	156.11	1.756	97.6641	-5.34782E-05
42.71	180.01	1.752	97.4416	-3.20853E-05
47.46	203.76	1.746	97.1079	-2.63047E-05
52.21	227.53	1.748	97.2191	-1.97451E-05
56.96	251.33	1.747	97.1635	-1.62996E-05
61.71	275.12	1.745	97.0523	-2.52474E-05
66.46	298.15	1.741	96.8298	-4.61153E-05
71.21	301.49	1.738	96.663	-0.000099525
75.96	299.68	1.736	96.5517	0.000370934
80.71	300	1.736	96.5517	-6.79546E-05
85.46	300.04	1.736	96.5517	-0.00109384
90.21	299.99	1.731	96.2736	0.00560291
94.96	300.01	1.735	96.4961	-0.00613733
99.71	300	1.731	96.2736	0.0031565
104.46	300	1.731	96.2736	0.0142609
109.21	300.01	1.731	96.2736	0.0349284
113.96	300	1.731	96.2736	0.102071
118.71	300	1.724	95.8843	0.0221966
123.46	300	1.73	96.218	-0.0767895
128.21	300	1.724	95.8843	-0.0416779
132.96	300	1.719	95.6062	0.0594968
137.71	300	1.723	95.8287	0.0445964
142.46	300	1.721	95.7175	0.0731729
147.21	300	1.72	95.6618	0.19293
151.96	300	1.717	95.495	0.210396
156.71	300	1.722	95.7731	0.144367
161.46	300	1.716	95.4394	0.15137
166.21	300	1.716	95.4394	0.077168
170.96	300	1.712	95.2169	0.00895148
175.71	300	1.709	95.0501	-0.0340244
180.46	300	1.707	94.9388	-0.0227055
185.21	300	1.705	94.8276	-0.0174317
189.96	300	1.703	94.7164	0.105418
194.71	300	1.695	94.2714	0.12735
199.46	300	1.697	94.3826	-0.0329438
204.21	300	1.697	94.3826	-0.053987
208.96	300	1.693	94.1602	-0.0205021
213.71	300	1.691	94.0489	-0.0254537
218.46	300	1.683	93.604	0.052993
223.21	300	1.686	93.7709	0.00962838
227.96	300	1.682	93.5484	0.0337593
232.71	300	1.682	93.5484	0.0560672
237.46	300	1.68	93.4372	0.0397953
242.21	300	1.678	93.3259	0.0614436
246.96	300	1.676	93.2147	0.0160742
251.71	300	1.675	93.1591	-0.0452339
256.46	300	1.673	93.0478	0.0516393
261.21	300	1.673	93.0478	0.00541951
265.96	300	1.668	92.7697	0.0399729
270.71	300	1.667	92.7141	0.12671
275.46	300	1.665	92.6029	0.0856947
280.21	300	1.664	92.5473	-0.0320647
284.96	300	1.663	92.4917	-0.0063709
289.71	300	1.661	92.3804	0.0402223
294.46	300	1.66	92.3248	0.110554
299.21	300	1.657	92.158	-0.00326033
303.96	300	1.656	92.1023	-0.0161748
308.71	300	1.657	92.158	0.0867189
313.46	300	1.653	91.9355	0.0838765
318.21	300	1.652	91.8799	-0.0563787
322.96	300	1.65	91.7686	-0.0676319
327.71	300	1.651	91.8242	0.00742697
332.46	300	1.645	91.4905	0.0550736
337.21	300	1.644	91.4349	0.0580579
341.96	300	1.642	91.3237	0.0198564
346.71	300	1.642	91.3237	-0.000451173
351.46	300	1.638	91.1012	0.0259762
356.21	300	1.64	91.2125	-0.0120976
360.96	300	1.638	91.1012	0.00653849
365.71	300	1.636	90.99	0.0160111
370.46	300	1.638	91.1012	0.0439629
375.21	300	1.635	90.9344	0.0491943
379.96	300	1.636	90.99	0.0715316
384.71	300	1.641	91.2681	0.0812594
389.46	300	1.635	90.9344	0.0822702
394.21	300	1.636	90.99	-0.00621756
398.96	300	1.632	90.7675	-0.048394
403.71	300	1.635	90.9344	-0.0282538
408.46	300	1.629	90.6007	0.041356
413.21	300	1.627	90.4894	0.0491872
417.96	300	1.628	90.5451	0.0709629
422.71	300	1.63	90.6563	0.065256
427.46	300	1.625	90.3782	0.0745006
432.21	300	1.628	90.5451	0.0863943
436.96	300	1.625	90.3782	0.0760917
441.71	300	1.622	90.2113	-0.00468768
446.46	300	1.619	90.0445	-0.0684773
451.21	300	1.622	90.2113	-0.05849
455.96	300	1.619	90.0445	0.0172593
460.71	300	1.612	89.6552	0.0742015
465.46	300	1.617	89.9333	0.0642626
470.21	300	1.617	89.9333	0.0829601
474.96	300	1.614	89.7664	0.101763
479.71	300	1.615	89.822	-0.000361837
484.46	300	1.613	89.7108	-0.113805
489.21	300	1.609	89.4883	-0.0822989
493.96	300	1.608	89.4327	0.121998
498.71	300	1.604	89.2102	0.0421853
503.46	300	1.607	89.3771	0.0584049
508.21	300	1.604	89.2102	0.0458312
512.96	300	1.601	89.0434	0.0194148
517.71	300	1.602	89.099	0.000744071
522.46	300	1.599	88.9321	0.0175791
527.21	300	1.595	88.7097	0.0770063
531.96	300	1.593	88.5984	-0.0126758
536.71	300	1.591	88.4872	-0.078368
541.46	300	1.594	88.6541	0.00915858
546.21	300	1.59	88.4316	0.108991
550.96	300	1.591	88.4872	0.114888
555.71	300	1.588	88.3204	0.0932136
560.46	300	1.588	88.3204	0.0187597
565.21	300	1.587	88.2647	0.0799705
569.96	300	1.583	88.0423	0.136791
574.71	300	1.583	88.0423	0.0152251
579.46	300	1.582	87.9867	-0.0749807
584.21	300	1.575	87.5973	-0.0401172
588.96	300	1.576	87.6529	0.125518
593.71	300	1.575	87.5973	0.0593927
598.46	300.01	1.575	87.5973	0.0798543
603.21	299.99	1.573	87.4861	0.0806086
607.96	300	1.576	87.6529	-0.00167065
612.71	300	1.572	87.4305	-0.111152
617.46	300	1.566	87.0968	-0.0599247
622.21	300	1.564	86.9855	-0.0818155
626.96	300	1.562	86.8743	-0.0255354
631.71	300	1.562	86.8743	0.124653
636.46	300	1.558	86.6518	0.0855739
641.21	300	1.56	86.7631	0.0465985
645.96	300	1.557	86.5962	0.04394
650.71	300	1.555	86.485	0.102129
655.46	300	1.555	86.485	0.113262
660.21	300	1.557	86.5962	0.0193137
664.96	300	1.553	86.3737	0.0211262
669.71	300	1.55	86.2069	-0.0342995
674.46	300	1.545	85.9288	-0.0533657
679.21	300	1.546	85.9844	-0.0473259
683.96	300	1.542	85.762	0.0673109
688.71	300	1.541	85.7063	0.0781957
693.46	299.99	1.543	85.8176	0.0649137
698.21	300	1.54	85.6507	0.00621663
702.96	300	1.536	85.4283	-0.0923463
707.71	300	1.536	85.4283	0.0285179
712.46	300	1.534	85.317	0.0358811
717.21	300	1.531	85.1502	-0.071978
721.96	300	1.528	84.9833	-0.0701927
726.71	300	1.528	84.9833	0.109502
731.46	300	1.528	84.9833	0.114282
736.21	300	1.527	84.9277	0.151351
740.96	300	1.524	84.7608	0.110085
745.71	299.99	1.522	84.6496	0.0956554
750.46	300	1.522	84.6496	0.0139701
755.21	300	1.523	84.7052	-0.0882431
759.96	300	1.518	84.4271	-0.0442243
764.71	300	1.515	84.2603	-0.0101415
769.46	300	1.515	84.2603	0.072426
774.21	300	1.513	84.1491	0.0417488
778.96	300	1.513	84.1491	0.077249
783.71	300	1.509	83.9266	0.0456217
788.46	300	1.508	83.871	0.0546123
793.21	300	1.509	83.9266	-0.0132398
797.96	300	1.508	83.871	-0.128702
802.71	300	1.5	83.426	-0.0840731
807.46	300	1.501	83.4816	0.0131946
812.21	300	1.499	83.3704	0.0685177
816.96	300	1.499	83.3704	0.0824078
821.71	300	1.494	83.0923	0.0878163
826.46	300	1.496	83.2036	0.0206336
831.21	300	1.494	83.0923	-0.052619
835.96	300	1.491	82.9255	0.141951
840.71	300	1.49	82.8699	0.111786
845.46	300	1.489	82.8142	-0.031151
850.21	300	1.487	82.703	-0.118525
854.96	300	1.486	82.6474	-0.0818196
859.71	300	1.485	82.5918	0.0409699
864.46	300	1.483	82.4805	0.0834931
869.21	300	1.481	82.3693	0.123282
873.96	300	1.478	82.2024	0.0777854
878.71	300	1.479	82.2581	0.095577
883.46	300	1.476	82.0912	-0.0604622
888.21	300	1.474	81.98	-0.112751
892.96	300	1.472	81.8687	-0.116329
897.71	300	1.469	81.7019	0.0760863
902.46	300	1.468	81.6463	0.0531484
907.21	300	1.468	81.6463	0.101838
911.96	300	1.466	81.535	0.0875071
916.71	300	1.466	81.535	0.117372
921.46	300	1.465	81.4794	-0.065909
926.21	300	1.463	81.3682	-0.0389879
930.96	300	1.459	81.1457	-0.106246
935.71	300	1.46	81.2013	-0.0468304
940.46	300	1.456	80.9789	-0.068372
945.21	300	1.454	80.8676	0.0378009
949.96	300	1.45	80.6452	0.0169386
954.71	300	1.452	80.7564	0.153639
959.46	300	1.452	80.7564	0.175252
964.21	300	1.447	80.4783	0.0588118
968.96	300	1.446	80.4227	-0.128367
973.71	300	1.445	80.3671	-0.0690771
978.46	300	1.444	80.3115	-0.052438
983.21	300	1.442	80.2002	-0.0579723
987.96	300	1.439	80.0334	0.0227641
992.71	300	1.439	80.0334	0.0245881
997.46	300	1.438	79.9778	0.0788593
1002.21	300	1.435	79.8109	0.114618
1006.96	300	1.435	79.8109	0.0705531
1011.71	300	1.434	79.7553	0.0272262
1016.46	300	1.434	79.7553	-0.127844
1021.21	300	1.429	79.4772	-0.139271
1025.96	300	1.426	79.3103	-0.16554
1030.71	300	1.425	79.2547	0.0966824
1035.46	300	1.423	79.1435	0.0103916
1040.21	300	1.423	79.1435	0.0506768
1044.96	300	1.421	79.0323	0.0944014
1049.71	300	1.418	78.8654	0.140689
1054.46	300	1.419	78.921	0.136252
1059.21	300	1.418	78.8654	-0.0928852
1063.96	300	1.413	78.5873	-0.0939109
1068.71	300	1.413	78.5873	0.0991909
1073.46	300	1.41	78.4205	0.0713912
1078.21	300	1.411	78.4761	-0.144686
1082.96	300	1.407	78.2536	-0.169962
1087.71	300	1.404	78.0868	-0.00669635
1092.46	300	1.405	78.1424	0.132826
1097.21	300	1.402	77.9755	0.162087
1101.96	300	1.401	77.9199	0.219738
1106.71	300	1.4	77.8643	0.156931
1111.46	300	1.399	77.8087	-0.153623
1116.21	300	1.395	77.5862	-0.1671
1120.96	300	1.396	77.6418	-0.147375
1125.71	300	1.392	77.4194	0.0189354
1130.46	300	1.387	77.1413	0.0829192
1135.21	300	1.389	77.2525	0.130482
1139.96	300	1.386	77.0857	0.132916
1144.71	300	1.385	77.03	0.153864
1149.46	300	1.384	76.9744	0.185048
1154.21	300	1.384	76.9744	-0.0574837
1158.96	300	1.379	76.6963	-0.143084
1163.71	300	1.38	76.7519	-0.126277
1168.46	300	1.38	76.7519	0.123691
1173.21	300	1.376	76.5295	-0.114977
1177.96	300	1.374	76.4182	-0.0445757
1182.71	300	1.374	76.4182	0.0627253
1187.46	300	1.368	76.0845	0.100222
1192.21	300	1.367	76.0289	0.130969
1196.96	300	1.368	76.0845	0.141439
1201.71	300	1.37	76.1958	0.0275555
1206.46	300	1.364	75.8621	-0.105617
1211.21	300	1.362	75.7508	-0.102429
1215.96	300	1.361	75.6952	0.00511212
1220.71	300	1.359	75.584	-0.0669965
1225.46	300	1.356	75.4171	-0.0663709
1230.21	300	1.355	75.3615	0.146241
1234.96	300	1.354	75.3059	0.16009
1239.71	300	1.352	75.1947	0.0956281
1244.46	300	1.351	75.139	0.287014
1249.21	300	1.35	75.0834	0.158219
1253.96	300	1.349	75.0278	0.0827314
1258.71	300	1.347	74.9166	-2.84419E-05
1263.46	300	1.344	74.7497	-5.49706E-05
1268.21	321.75	1.344	74.7497	-0.000342081
1272.96	368.09	1.307	72.6919	-0.00171431
1277.71	416.27	0.805	44.772	-0.00257504
1282.46	463.87	0.008	0.444939	-0.00183099
1287.21	511.54	0.005	0.278087	-0.000227929
1291.96	559.16	0.004	0.222469	5.40714E-06
1296.71	606.76	0.006	0.333704	1.51431E-05
1301.46	654.34	0.005	0.278087	2.06321E-05
1306.21	701.93	0.017	0.945495	0.000018913
1310.96	749.49	0.007	0.389321	1.32917E-05
1314.71	787.04			1.31465E-05