File: data/TGA/005d-L_M/L3-seferosTGA.txt
Filename	F1
Instrument name
Operator	Gwenael
rundate	2025-02-10
Sample name	F1
[step]
Step 1
Time	Temperature	Weight	Weight	Deriv. Weight
min	°C	mg	%	% / °C
0	30.466	0.74533	100	50
2.68	41.944	0.92867	93.15725	50
5.36	63.7	2.01392	95.27756	50
7.5	87.981	2.66467	95.98453	50
8.84	98.649	1.63674	94.33888	50
10.18	104.674	0.99005	93.08066	50
11.52	108.179	0.50929	91.85957	50
12.86	109.322	9.38E-02	90.69323	50
14.2	109.063	-0.15696	89.78066	50
15.54	107.997	-0.30225	89.04101	50
16.88	106.522	-0.36552	88.48298	50
19.48	108.401	0.46885	89.22495	50
22.16	118.385	1.21144	90.00174	50
24.84	133.01	1.62377	90.18781	50
27.52	148.776	1.72451	90.18124	50
30.2	163.972	1.6826	90.2381	50
32.88	178.277	1.60476	90.29052	50
35.56	192.021	1.53895	90.38897	50
38.24	205.482	1.49131	90.48975	50
40.92	218.817	1.44864	90.5619	50
43.6	232.14	1.40408	90.62766	50
46.28	245.476	1.34754	90.73926	50
48.96	258.812	1.27636	90.81141	50
51.64	272.145	1.19934	90.87041	50
54.32	285.494	1.10704	90.89671	50
57.06	299.126	1.00581	90.89671	50
63.76	302.196	-1.27844	90.02573	50
70.46	300.518	-1.19993	89.10019	50
77.16	300.101	-1.16615	88.38453	50
83.86	300.02	-1.16285	87.76093	50
90.56	300.009	-1.16152	87.22476	50
97.26	300.01	-1.16209	86.7675	50
103.96	300.021	-1.16735	86.33424	50
110.66	300.009	-1.17183	85.9381	50
117.36	300.015	-1.17147	85.53114	50
124.06	300.011	-1.17446	85.15899	50
130.76	300.014	-1.17484	84.76518	50
137.46	300.011	-1.1769	84.42592	50
144.16	300.024	-1.17504	84.07814	50
150.86	300.022	-1.1771	83.75416	50
157.56	300.016	-1.18028	83.41509	50
164.26	300.018	-1.18084	83.06712	50
170.96	300.025	-1.17992	82.72128	50
177.66	300.007	-1.18251	82.36035	50
184.36	300.021	-1.18422	82.03211	50
191.06	300.041	-1.18275	81.65338	50
197.76	300.011	-1.18439	81.34275	50
204.46	300.023	-1.18741	80.98607	50
211.16	300.017	-1.1859	80.64894	50
217.86	300.013	-1.18871	80.30116	50
224.56	300.016	-1.17278	79.92244	50
231.26	300.022	-1.17579	79.56151	50
237.96	300.016	-1.17803	79.27253	50
244.66	300.016	-1.17653	78.92476	50
251.36	300.019	-1.17541	78.57447	50
258.06	300.013	-1.17877	78.2354	50
264.76	300.024	-1.17766	77.8853	50
271.46	300.007	-1.18008	77.52205	50
278.16	300.006	-1.17895	77.17408	50
284.86	300.025	-1.17898	76.79323	50
291.56	300.029	-1.18086	76.406	50
298.26	300.021	-1.18235	76.06015	50
304.96	300.026	-1.18573	75.6795	50
311.66	300.021	-1.18253	75.3381	50
318.36	300.021	-1.18291	74.96383	50
325.06	300.012	-1.18683	74.58975	50
331.76	300.011	-1.18458	74.22205	50
338.46	300.015	-1.18515	73.87408	50
345.16	300.02	-1.18891	73.50658	50
351.86	300.003	-1.18851	73.13675	50
358.56	300.024	-1.18816	72.79536	50
365.26	300.014	-1.19209	72.42108	50
371.96	299.997	-1.19187	72.047	50
378.66	300.018	-1.19247	71.67718	50
385.36	300.001	-1.19357	71.30077	50
392.06	300.019	-1.1919	70.93965	50
398.76	300.014	-1.1964	70.58956	50
405.46	300.018	-1.1934	70.20658	50
412.16	300.029	-1.19473	69.87834	50
418.86	300.018	-1.19115	69.50851	50
425.56	300.005	-1.1932	69.12766	50
432.26	300.025	-1.19772	68.77988	50
438.96	300.016	-1.19809	68.41219	50
445.66	300.017	-1.1964	68.03791	50
452.36	300.019	-1.19809	67.70309	50
459.06	300.021	-1.19959	67.33559	50
465.76	300.013	-1.19958	66.98762	50
472.46	300.014	-1.20127	66.60039	50
479.16	300.022	-1.19772	66.25899	50
485.86	300.007	-1.20445	65.93501	50
492.56	300.033	-1.20317	65.58046	50
499.26	300.024	-1.20372	65.24584	50
505.96	300.027	-1.20729	64.8913	50
512.66	300.018	-1.20596	64.5236	50
519.36	300.029	-1.2086	64.18221	50
526.06	300.031	-1.21161	63.84081	50
532.76	300.018	-1.20953	63.46673	50
539.46	300.032	-1.20973	63.15822	50
546.16	300.015	-1.2099	62.84294	50
552.86	300.023	-1.21141	62.45783	50
559.56	300.01	-1.2082	62.12302	50
566.26	300.026	-1.21085	61.80793	50
572.96	300.021	-1.21459	61.47311	50
579.66	300.021	-1.21047	61.09903	50
586.36	300.013	-1.21158	60.77079	50
593.06	299.998	-1.214	60.42282	50
599.76	300.011	-1.21476	60.04855	50
606.46	300.014	-1.21402	59.70716	50
613.16	300.021	-1.21478	59.3528	50
619.86	300.021	-1.21647	58.99826	50
626.56	300.019	-1.21796	58.64816	50
633.26	300.022	-1.21965	58.33308	50
639.96	300.019	-1.22265	57.99826	50
646.66	300.011	-1.22039	57.65029	50
653.36	300.014	-1.22058	57.36789	50
660.06	300.012	-1.22095	57.0265	50
666.76	300.019	-1.22115	56.71799	50
673.46	300.013	-1.22302	56.41605	50
680.16	300.026	-1.22435	56.08124	50
686.86	300.011	-1.22414	55.73114	50
693.56	300.022	-1.22565	55.4029	50
700.26	300.015	-1.22414	55.08781	50
706.96	300.007	-1.22526	54.75087	50
713.66	300.026	-1.22453	54.44217	50
720.36	300.017	-1.2249	54.10735	50
727.06	300.011	-1.22639	53.79226	50
733.76	300.022	-1.22828	53.42476	50
740.46	300.003	-1.23087	53.08994	50
747.16	300.016	-1.23371	52.78124	50
753.86	300.018	-1.23202	52.43346	50
760.56	300.011	-1.23613	52.13133	50
767.26	300.018	-1.23652	51.83598	50
773.96	300.01	-1.23407	51.56692	50
780.66	300.021	-1.23465	51.25164	50
787.36	300.007	-1.2365	50.95629	50
794.06	300.017	-1.23464	50.62805	50
800.76	300.019	-1.23427	50.3501	50
807.46	300.024	-1.2369	50.03501	50
814.16	300.015	-1.2397	49.74623	50
820.86	300.011	-1.24026	49.39168	50
827.56	300.007	-1.24157	49.10058	50
834.26	300.02	-1.24308	48.8118	50
840.96	300.017	-1.24233	48.52959	50
847.66	300.016	-1.24364	48.1882	50
854.36	300.018	-1.23821	47.91025	50
861.06	300.004	-1.24325	47.63017	50
867.76	300.012	-1.24626	47.36093	50
874.46	300.013	-1.24307	47.03482	50
881.16	300.02	-1.24421	46.75706	50
887.86	300.013	-1.24532	46.45493	50
894.56	300.011	-1.24363	46.16615	50
901.26	300.022	-1.2444	45.87737	50
907.96	300.002	-1.24325	45.58182	50
914.66	300.009	-1.24757	45.31934	50
921.36	300.018	-1.24814	45.04352	50
928.06	300.041	-1.24836	44.73714	50
934.76	300.007	-1.24775	44.44836	50
941.46	300.021	-1.24833	44.153	50
948.16	300.022	-1.24946	43.89033	50
954.86	300.021	-1.25246	43.59284	50
961.56	300.029	-1.24741	43.29729	50
968.26	300.022	-1.24871	42.9735	50
974.96	300.011	-1.24776	42.70426	50
981.66	300.018	-1.24571	42.44836	50
988.36	299.999	-1.24662	42.17253	50
995.06	300.023	-1.24796	41.86847	50
1001.76	300.015	-1.24739	41.59265	50
1008.46	300.007	-1.24663	41.32128	50
1015.16	300.01	-1.25038	41.0499	50
1021.86	300.016	-1.2502	40.74584	50
1028.56	300.018	-1.25039	40.48975	50
1035.26	300.019	-1.24608	40.18124	50
1041.96	300.007	-1.24756	39.89014	50
1048.66	300.014	-1.2502	39.61219	50
1055.36	300.014	-1.25095	39.32553	50
1062.06	300.011	-1.25001	39.06306	50
1068.76	300.009	-1.25132	38.71509	50
1075.46	300.022	-1.24984	38.49632	50
1082.16	300.021	-1.25358	38.22708	50
1088.86	300.022	-1.25583	37.98414	50
1095.56	300.009	-1.25338	37.71277	50
1102.26	300.009	-1.25638	37.43501	50
1108.96	300.022	-1.25696	37.16132	50
1115.66	300.011	-1.25507	36.90542	50
1122.36	300.02	-1.25696	36.6559	50
1129.06	300.009	-1.25507	36.42824	50
1135.76	300.006	-1.25281	36.17892	50
1142.46	300.021	-1.25921	35.90097	50
1149.16	300.015	-1.25245	35.6559	50
1155.86	300.005	-1.25394	35.3824	50
1162.56	300.022	-1.25396	35.11973	50
1169.26	300.014	-1.25864	34.87679	50
1175.96	300.011	-1.25694	34.64487	50
1182.66	299.987	-1.25728	34.3648	50
1189.36	300.018	-1.25883	34.09342	50
1196.06	300.009	-1.25975	33.88337	50
1202.76	300.019	-1.25733	33.60774	50
1209.46	300.01	-1.25919	33.38878	50
1216.16	300.016	-1.26089	33.13056	50
1222.86	300.015	-1.25901	32.88762	50
1229.56	300.016	-1.26014	32.67099	50
1236.26	300.021	-1.26427	32.42824	50
1242.96	300.027	-1.25828	32.20503	50
1249.66	300.032	-1.26054	32.02108	50
1256.36	300.029	-1.26372	31.78472	50
1257.265	300.459	-0.9742	31.71044	50
1257.6	302.988	0.6323	31.76286	50
1257.935	307.786	2.92863	32.2706	50
1258.27	313.78	4.73258	32.7499	50
1258.605	319.854	5.52278	33.02128	50
1258.94	325.576	5.58992	33.12631	50
1259.275	331.164	5.49691	33.17872	50
1259.61	336.981	5.63768	33.28375	50
1259.945	343.313	6.06304	33.38878	50
1260.28	350.118	6.59549	33.4675	50
1260.615	357.211	7.01478	33.52012	50
1260.95	364.391	7.2469	33.44139	50
1261.285	371.581	7.33193	33.24662	50
1261.62	378.752	7.36534	32.84603	50
1261.955	385.965	7.41432	32.23346	50
1262.29	393.218	7.49107	31.3472	50
1262.625	400.502	7.60114	29.95764	50
1262.96	407.776	7.73275	27.88975	50
1263.295	415.033	7.86439	25.1675	50
1263.63	422.253	8.02256	21.46925	50
1263.965	429.421	8.13991	17.04681	50
1264.3	436.549	8.16449	12.16905	50
1264.635	443.66	8.02194	7.53868	50
1264.97	450.726	7.67886	3.753	50
1265.305	457.765	7.19636	1.18182	50
1265.64	464.771	6.68426	-0.2646	50
1265.975	471.767	6.22002	-0.87969	50
1266.31	478.736	5.85119	-0.9824	50
1266.645	485.666	5.57551	-0.92998	50
1266.98	492.59	5.35231	-0.85106	50
1267.315	499.448	5.14332	-0.79865	50
1267.65	506.302	4.94578	-0.70677	50
1267.985	513.132	4.7471	-0.64101	50
1268.32	519.969	4.58072	-0.55783	50
1268.655	526.815	4.40654	-0.47911	50
1268.99	533.605	4.19515	-0.40039	50
1269.325	540.373	3.97535	-0.32166	50
1269.66	547.121	3.76977	-0.24932	50
1269.995	553.87	3.57482	-0.19033	50
1270.33	560.621	3.38718	-0.10503	50
1270.665	567.365	3.19492	-2.40E-02	50
1271	574.108	3.00524	1.55E-02	50
1271.335	580.849	2.80301	0.12263	50
1271.67	587.593	2.59399	0.17524	50
1272.005	594.332	2.36992	0.25397	50
1272.34	601.059	2.1561	0.27795	50
1272.675	607.797	1.94876	0.35687	50
1273.01	614.531	1.72584	0.41586	50
1273.345	621.267	1.49719	0.49458	50
1273.68	627.996	1.25658	0.5472	50
1274.015	634.713	1.01751	0.61277	50
1274.35	641.436	0.77011	0.65222	50
1274.685	648.166	0.50623	0.71779	50
1275.02	654.875	0.25206	0.80967	50
1275.355	661.603	-7.89E-03	0.83598	50
1275.69	668.33	-0.28542	0.96731	50
1276.025	675.047	-0.57455	0.9323	50
1276.36	681.759	-0.87362	0.97176	50
1276.695	688.496	-1.17226	1.02418	50
1277.03	695.218	-1.45888	1.1029	50
1277.365	701.968	-1.74993	1.15551	50
1277.7	708.706	-2.05455	1.18839	50
1278.035	715.446	-2.35571	1.26712	50
1278.37	722.189	-2.67124	1.31954	50
1278.705	728.913	-2.98823	1.39845	50
1279.04	735.644	-3.32581	1.45087	50
1279.375	742.372	-3.63136	1.47718	50
1279.71	749.121	-3.94682	1.52979	50
1280.045	755.856	-4.26362	1.60851	50
1280.38	762.59	-4.58052	1.64778	50
1280.715	769.334	-4.90336	1.71354	50
1281.05	776.039	-5.21678	1.76596	50
1281.385	782.779	-5.53367	1.8383	50
1281.72	789.497	-5.84268	1.89729	50
1281.96	794.329	-6.05813	1.9236	50