File: data/TGA/005d-L_M/L3.txt
Filename	L3
Instrument name
Operator	Galyna
rundate	2025-02-24
Sample name	L3
[step]
Step 1
Time	Temperature	Weight	Weight	Deriv. Weight
min	°C	mg	%	% / °C
0.01	25.98	432.628	99.999	-2.13348e-5
5.21	42.88	432.625	99.998	-1.85504e-5
10.46	67.99	432.622	99.998	-3.27539e-5
15.71	94.30	432.620	99.997	-8.20688e-5
20.96	102.40	432.606	99.994	-1.72679e-4
26.21	100.86	432.605	99.994	-8.76098e-5
31.46	123.89	432.598	99.992	-7.72316e-5
36.71	149.77	432.588	99.990	-6.23152e-5
41.96	176.25	432.584	99.989	-3.47447e-5
47.21	202.52	432.579	99.988	-2.67940e-5
52.46	228.78	432.579	99.988	-1.95361e-5
57.71	255.09	432.575	99.987	-1.67043e-5
62.96	281.38	432.575	99.987	-2.92038e-5
68.21	301.24	432.571	99.986	-5.68991e-5
73.46	300.32	432.567	99.985	-9.25337e-5
78.71	299.81	432.565	99.985	2.45846e-4
83.96	300.07	432.564	99.984	-1.09350e-3
89.21	299.99	432.564	99.984	5.64543e-3
94.46	300.00	432.563	99.984	5.32071e-4
99.71	300.00	432.561	99.984	3.15650e-3
104.96	300.00	432.562	99.984	0.0192509
110.21	300.00	432.556	99.982	0.0458263
115.46	300.00	432.560	99.983	0.0858161
120.71	300.00	432.559	99.983	-0.0545312
125.96	300.00	432.557	99.983	-0.0632050
131.21	300.00	432.553	99.982	0.0511242
136.46	300.00	432.554	99.982	0.0775886
141.71	300.00	432.551	99.981	0.0502048
146.96	300.00	432.551	99.981	0.192603
152.21	300.00	432.548	99.981	0.210042
157.46	300.00	432.550	99.981	0.153090
162.71	300.00	432.545	99.980	0.106723
167.96	300.00	432.543	99.979	0.0432979
173.21	300.00	432.540	99.979	-0.0479759
178.46	300.00	432.539	99.979	-0.0222105
183.71	300.00	432.536	99.978	-0.0487440
188.96	300.00	432.530	99.976	0.0711306
194.21	300.00	432.525	99.975	0.141495
199.46	300.00	432.527	99.976	-0.0329438
204.71	300.00	432.523	99.975	-0.0702417
209.96	300.00	432.517	99.973	-0.0604753
215.21	300.00	432.524	99.975	-0.0588737
220.46	300.00	432.520	99.974	0.0539850
225.71	300.00	432.514	99.973	0.0955332
230.96	300.00	432.512	99.972	0.0782088
236.21	300.00	432.509	99.972	0.0813408
241.46	300.01	432.510	99.972	0.0383561
246.71	300.00	432.506	99.971	0.0249016
251.96	300.00	432.505	99.971	-0.0389699
257.21	300.00	432.503	99.970	0.0249910
262.46	300.00	432.502	99.970	0.0102616
267.71	300.00	432.505	99.971	0.0467093
272.96	300.00	432.497	99.969	0.134889
278.21	300.00	432.495	99.968	0.0243661
283.46	300.00	432.493	99.968	-0.0320023
288.71	300.00	432.490	99.967	0.0268922
293.96	300.00	432.491	99.967	0.0984810
299.21	300.00	432.487	99.966	-3.26033e-3
304.46	300.00	432.485	99.966	1.27657e-3
309.71	300.00	432.486	99.966	0.0888175
314.96	300.00	432.483	99.966	0.0523362
320.21	300.00	432.480	99.965	-0.0924893
325.46	300.00	432.478	99.964	-0.0214692
330.71	300.00	432.478	99.964	0.0416174
335.96	300.00	432.475	99.964	0.0597204
341.21	300.00	432.475	99.964	0.0140610
346.46	300.00	432.472	99.963	1.63461e-3
351.71	300.00	432.474	99.963	0.0183955
356.96	300.00	432.467	99.962	-0.0339231
362.21	300.00	432.468	99.962	3.63344e-3
367.46	300.00	432.467	99.962	0.0410248
372.71	300.00	432.467	99.962	0.0485940
377.96	300.00	432.464	99.961	0.0689397
383.21	300.00	432.469	99.962	0.0792322
388.46	300.00	432.466	99.962	0.0769546
393.71	300.00	432.466	99.962	0.0144507
398.96	300.00	432.462	99.961	-0.0483940
404.21	300.00	432.461	99.961	-0.0168752
409.46	300.00	432.461	99.961	0.0344039
414.71	300.00	432.462	99.961	0.0542945
419.96	300.00	432.458	99.960	0.0339477
425.21	300.00	432.456	99.959	0.0731762
430.46	300.00	432.455	99.959	0.0765739
435.71	300.00	432.455	99.959	0.102256
440.96	300.00	432.455	99.959	-0.0106857
446.21	300.00	432.450	99.958	-0.0693857
451.46	300.00	432.449	99.958	-0.0619439
456.71	300.00	432.450	99.958	0.0276708
461.96	300.00	432.452	99.958	0.0700342
467.21	300.00	432.444	99.957	0.0828236
472.46	300.00	432.446	99.957	0.0879762
477.71	300.00	432.443	99.956	0.0579625
482.96	300.00	432.445	99.957	-0.0942122
488.21	300.00	432.437	99.955	-0.102810
493.46	300.00	432.438	99.955	0.141962
498.71	300.00	432.434	99.954	0.0421853
503.96	300.00	432.433	99.954	0.0525838
509.21	300.00	432.431	99.954	0.0659705
514.46	300.00	432.434	99.954	-0.0142847
519.71	300.00	432.432	99.954	0.0259001
524.96	300.00	432.431	99.954	0.0521223
530.21	300.00	432.426	99.952	0.0326827
535.46	300.00	432.425	99.952	-0.0416922
540.71	300.00	432.424	99.952	-0.0160703
545.96	300.00	432.419	99.951	0.106941
551.21	300.00	432.421	99.951	0.112707
556.46	300.00	432.418	99.950	0.0632791
561.71	300.00	432.417	99.950	0.0422385
566.96	300.00	432.418	99.951	0.102124
572.21	300.00	432.415	99.950	0.103314
577.46	300.00	432.413	99.949	-0.0620690
582.71	300.00	432.411	99.949	-0.0648322
587.96	300.00	432.407	99.948	0.118303
593.21	300.00	432.403	99.947	0.0377548
598.46	300.01	432.405	99.948	0.0798543
603.71	300.00	432.401	99.947	0.0680655
608.96	300.00	432.402	99.947	-0.0375659
614.21	300.00	432.397	99.946	-0.100757
619.46	300.00	432.396	99.945	-0.0176777
624.71	300.00	432.395	99.945	-0.0630077
629.96	300.00	432.391	99.944	0.0425660
635.21	300.00	432.391	99.944	0.0844186
640.46	300.00	432.388	99.944	0.0673071
645.71	300.00	432.391	99.944	0.0401447
650.96	300.00	432.385	99.943	0.103808
656.21	300.00	432.386	99.943	0.106927
661.46	300.00	432.384	99.943	-0.0487859
666.71	300.00	432.381	99.942	0.0268108
671.96	300.00	432.378	99.941	-0.0359875
677.21	300.00	432.372	99.940	-0.0777661
682.46	300.00	432.371	99.940	7.57065e-3
687.71	300.00	432.372	99.940	0.0760272
692.96	300.00	432.371	99.940	0.0670350
698.21	300.00	432.370	99.939	6.21663e-3
703.46	300.00	432.366	99.938	-0.0909783
708.71	300.00	432.367	99.939	0.0555317
713.96	300.00	432.364	99.938	-1.46416e-3
719.21	300.00	432.362	99.938	-0.0890806
724.46	300.00	432.358	99.937	0.0465912
729.71	300.00	432.358	99.937	0.123695
734.96	300.00	432.355	99.936	0.142376
740.21	300.00	432.353	99.936	0.110119
745.46	300.00	432.353	99.936	0.0977101
750.71	300.00	432.352	99.935	8.99881e-3
755.96	300.00	432.353	99.936	-0.0767861
761.21	300.00	432.348	99.934	-0.0541056
766.46	300.00	432.344	99.933	0.0624590
771.71	300.00	432.344	99.933	1.68727e-3
776.96	300.00	432.343	99.933	0.0963633
782.21	300.00	432.340	99.932	0.0426035
787.46	300.00	432.339	99.932	0.0545226
792.71	300.00	432.339	99.932	-5.47604e-3
797.96	300.00	432.338	99.932	-0.128702
803.21	300.00	432.333	99.931	-0.0858815
808.46	300.00	432.331	99.930	0.0437799
813.71	300.00	432.330	99.930	0.0859639
818.96	300.00	432.327	99.930	0.124166
824.21	300.00	432.325	99.929	0.0725485
829.46	300.00	432.324	99.929	-0.0567318
834.71	300.00	432.325	99.929	0.0980398
839.96	300.00	432.321	99.928	0.105853
845.21	300.00	432.319	99.928	-0.0150533
850.46	300.00	432.318	99.927	-0.114998
855.71	300.00	432.313	99.926	-0.0752083
860.96	300.00	432.315	99.927	0.0660482
866.21	300.00	432.311	99.926	0.0855736
871.46	300.00	432.313	99.926	0.0742826
876.71	300.00	432.308	99.925	0.0847043
881.96	300.00	432.308	99.925	-9.82750e-3
887.21	300.00	432.303	99.924	-0.0793661
892.46	300.00	432.301	99.923	-0.125006
897.71	300.00	432.299	99.923	0.0760863
902.96	300.00	432.298	99.923	0.0626335
908.21	300.00	432.297	99.923	0.0949894
913.46	300.00	432.295	99.922	0.130014
918.71	300.00	432.294	99.922	0.0538361
923.96	300.00	432.293	99.922	-0.0891915
929.21	300.00	432.291	99.921	-0.112793
934.46	300.00	432.289	99.921	-0.105405
939.71	300.00	432.290	99.921	-0.0893725
944.96	300.00	432.283	99.919	0.0366733
950.21	300.00	432.281	99.919	0.0204068
955.46	300.00	432.281	99.919	0.152018
960.71	300.00	432.279	99.919	0.145717
965.96	300.00	432.281	99.919	-0.0291109
971.21	300.00	432.276	99.918	-0.126954
976.46	300.00	432.274	99.917	-0.0572199
981.71	300.00	432.272	99.917	-0.0342883
986.96	300.00	432.271	99.916	5.82052e-3
992.21	300.00	432.270	99.916	0.0269241
997.46	300.00	432.268	99.916	0.0788593
1002.71	300.00	432.267	99.916	0.120156
1007.96	299.99	432.260	99.914	0.0668171
1013.21	300.00	432.264	99.915	-0.0241863
1018.46	300.00	432.263	99.915	-0.156660
1023.71	300.00	432.254	99.913	-0.204648
1028.96	300.00	432.256	99.913	0.0315928
1034.21	300.00	432.254	99.913	0.0268102
1039.46	300.00	432.251	99.912	0.0424131
1044.71	300.00	432.250	99.912	0.0937852
1049.96	300.00	432.250	99.912	0.141785
1055.21	300.00	432.248	99.911	0.129659
1060.46	300.00	432.248	99.911	-0.149690
1065.71	300.00	432.248	99.911	0.0223292
1070.96	300.00	432.244	99.910	0.133652
1076.21	300.00	432.239	99.909	-0.0210728
1081.46	300.00	432.238	99.909	-0.151327
1086.71	300.00	432.236	99.908	-0.0614728
1091.96	300.00	432.234	99.908	0.111644
1097.21	300.00	432.232	99.908	0.162087
1102.46	300.00	432.231	99.907	0.225259
1107.71	300.00	432.229	99.907	0.121171
1112.96	300.00	432.227	99.906	-0.169815
1118.21	300.00	432.224	99.906	-0.174763
1123.46	300.00	432.223	99.905	-0.125264
1128.71	300.00	432.220	99.905	0.0223115
1133.96	300.00	432.219	99.905	0.106327
1139.21	300.00	432.218	99.904	0.132629
1144.46	300.00	432.216	99.904	0.147164
1149.71	300.00	432.214	99.903	0.186078
1154.96	300.00	432.215	99.904	-0.0956206
1160.21	300.00	432.211	99.903	-0.160320
1165.46	300.00	432.209	99.902	6.57078e-3
1170.71	300.00	432.207	99.902	0.0276896
1175.96	300.00	432.205	99.901	-0.0280884
1181.21	300.00	432.202	99.901	0.0253061
1186.46	300.00	432.198	99.900	0.0813863
1191.71	300.00	432.199	99.900	0.124053
1196.96	300.00	432.198	99.900	0.141439
1202.21	300.00	432.195	99.899	-0.0323552
1207.46	300.00	432.196	99.899	-0.122204
1212.71	300.00	432.185	99.897	-0.0838668
1217.96	300.00	432.185	99.897	0.0338159
1223.21	300.00	432.188	99.897	-0.132665
1228.46	300.00	432.186	99.897	0.0810845
1233.71	300.00	432.184	99.896	0.170988
1238.96	300.00	432.184	99.896	0.112161
1244.21	300.00	432.182	99.896	0.294022
1249.46	300.00	432.179	99.895	0.135801
1254.71	300.00	432.181	99.896	0.0846324
1259.96	300.00	432.176	99.895	-3.16482e-5
1265.21	300.26	432.176	99.894	-9.94732e-5
1270.46	342.98	432.167	99.893	-8.56415e-4
1275.71	396.09	431.988	99.851	-2.40017e-3
1280.96	448.85	430.894	99.598	-2.23664e-3
1286.21	501.50	430.832	99.584	-4.90480e-4
1291.46	554.14	430.835	99.585	4.98790e-6
1296.71	606.76	430.836	99.585	1.51431e-5
1301.96	659.35	430.844	99.587	2.12462e-5
1307.21	711.94	430.847	99.587	1.79517e-5
1312.46	764.51	430.849	99.588	1.40221e-5
1314.71	787.04	430.852	99.588	1.31465e-5