File: data/TGA/005d-L_M/L3_000001 -temp_104 AMU_XIC
Time	Ion Current
min	mA
0.00	1.00000e-13
4.53	1.00000e-13
9.05	1.00000e-13
13.58	1.00000e-13
18.11	1.00000e-13
22.63	1.00000e-13
27.16	1.00000e-13
31.69	1.00000e-13
36.21	1.00000e-13
40.74	1.00000e-13
45.27	1.00000e-13
49.79	1.00000e-13
54.32	1.00000e-13
58.85	1.00000e-13
63.37	1.00000e-13
67.90	1.00000e-13
72.43	1.00000e-13
76.95	1.00000e-13
81.48	1.00000e-13
86.00	1.00000e-13
90.53	1.00000e-13
95.06	9.03657e-6
99.58	1.00000e-13
104.11	1.12378e-5
108.64	1.00000e-13
113.16	1.00000e-13
117.69	1.00000e-13
122.22	1.00000e-13
126.74	1.00000e-13
131.27	1.00000e-13
135.80	1.00000e-13
140.32	1.73780e-6
144.85	1.00000e-13
149.38	1.00000e-13
153.90	1.00000e-13
158.43	1.00000e-13
162.96	1.51768e-5
167.48	1.00000e-13
172.01	5.44511e-6
176.54	1.00000e-13
181.06	1.00000e-13
185.59	1.00000e-13
190.11	1.00000e-13
194.64	1.00000e-13
199.17	1.00000e-13
203.69	1.00000e-13
208.22	1.00000e-13
212.75	1.00000e-13
217.27	1.00000e-13
221.80	1.00000e-13
226.33	1.00000e-13
230.85	1.00000e-13
235.38	1.00000e-13
239.91	1.00000e-13
244.43	1.00000e-13
248.96	1.00000e-13
253.49	1.00000e-13
258.01	2.43292e-6
262.54	1.00000e-13
267.06	1.00000e-13
271.59	1.00000e-13
276.12	1.00000e-13
280.64	1.00000e-13
285.17	1.00000e-13
289.70	1.00000e-13
294.23	1.00000e-13
298.75	2.43292e-6
303.28	1.00000e-13
307.80	1.00000e-13
312.33	1.00000e-13
316.86	1.00000e-13
321.38	1.00000e-13
325.91	1.00000e-13
330.43	1.00000e-13
334.96	1.00000e-13
339.49	1.85366e-5
344.01	1.00000e-13
348.54	1.00000e-13
353.07	1.00000e-13
357.59	1.52927e-5
362.12	1.00000e-13
366.65	1.00000e-13
371.17	1.00000e-13
375.70	1.00000e-13
380.23	1.00000e-13
384.75	1.00000e-13
389.28	1.00000e-13
393.81	2.78048e-6
398.33	1.00000e-13
402.86	1.00000e-13
407.39	1.00000e-13
411.91	1.00000e-13
416.44	1.00000e-13
420.96	1.00000e-13
425.49	4.86585e-6
430.02	1.00000e-13
434.55	1.00000e-13
439.07	1.00000e-13
443.60	1.00000e-13
448.12	1.00000e-13
452.65	1.00000e-13
457.18	1.00000e-13
461.70	1.00000e-13
466.23	1.00000e-13
470.76	1.00000e-13
475.28	1.00000e-13
479.81	1.00000e-13
484.34	1.00000e-13
488.86	2.78048e-6
493.39	1.00000e-13
497.92	1.00000e-13
502.44	1.00000e-13
506.97	1.00000e-13
511.50	1.00000e-13
516.02	1.00000e-13
520.55	1.00000e-13
525.08	1.00000e-13
529.60	1.00000e-13
534.13	1.00000e-13
538.66	1.00000e-13
543.18	1.49451e-5
547.71	1.00000e-13
552.24	1.00000e-13
556.76	1.00000e-13
561.29	1.00000e-13
565.82	7.18292e-6
570.34	1.00000e-13
574.87	1.00000e-13
579.40	1.00000e-13
583.92	1.00000e-13
588.45	1.00000e-13
592.97	1.00000e-13
597.50	1.00000e-13
602.03	1.00000e-13
606.55	1.00000e-13
611.08	1.00000e-13
615.60	1.00000e-13
620.13	1.00000e-13
624.66	1.00000e-13
629.19	1.00000e-13
633.71	1.00000e-13
638.24	1.00000e-13
642.76	1.00000e-13
647.29	1.00000e-13
651.82	1.00000e-13
656.35	1.00000e-13
660.87	1.00000e-13
665.40	1.00000e-13
669.92	1.00000e-13
674.45	1.00000e-13
678.98	1.00000e-13
683.50	7.41462e-6
688.03	7.29877e-6
692.56	1.00000e-13
697.08	1.00000e-13
701.61	1.00000e-13
706.14	1.00000e-13
710.66	1.00000e-13
715.19	1.00000e-13
719.72	1.00000e-13
724.24	1.00000e-13
728.77	1.00000e-13
733.30	1.00000e-13
737.82	1.00000e-13
742.35	1.00000e-13
746.87	1.00000e-13
751.40	1.00000e-13
755.93	1.00000e-13
760.46	1.00000e-13
764.98	1.00000e-13
769.51	1.00000e-13
774.03	1.00000e-13
778.56	1.00000e-13
783.09	1.00000e-13
787.61	1.00000e-13
792.14	1.00000e-13
796.67	1.00000e-13
801.19	1.00000e-13
805.72	1.00000e-13
810.25	1.00000e-13
814.77	1.00000e-13
819.30	1.00000e-13
823.82	1.00000e-13
828.35	9.26828e-7
832.88	1.00000e-13
837.40	1.00000e-13
841.93	1.00000e-13
846.46	1.00000e-13
850.98	1.00000e-13
855.51	1.00000e-13
860.04	1.00000e-13
864.56	1.00000e-13
869.09	1.00000e-13
873.62	1.00000e-13
878.14	1.00000e-13
882.67	1.00000e-13
887.19	1.00000e-13
891.72	1.00000e-13
896.25	1.00000e-13
900.77	1.00000e-13
905.30	1.00000e-13
909.83	1.00000e-13
914.35	1.00000e-13
918.88	1.00000e-13
923.41	1.00000e-13
927.93	1.00000e-13
932.46	1.00000e-13
936.99	1.00000e-13
941.51	1.00000e-13
946.04	1.00000e-13
950.57	1.00000e-13
955.10	1.00000e-13
959.62	1.00000e-13
964.15	1.00000e-13
968.67	1.00000e-13
973.20	1.00000e-13
977.72	1.00000e-13
982.25	1.00000e-13
986.78	1.00000e-13
991.31	1.00000e-13
995.83	1.00000e-13
1000.36	1.00000e-13
1004.88	1.00000e-13
1009.41	1.00000e-13
1013.94	1.00000e-13
1018.46	1.00000e-13
1022.99	1.00000e-13
1027.52	1.00000e-13
1032.04	1.00000e-13
1036.57	1.00000e-13
1041.10	1.00000e-13
1045.62	1.00000e-13
1050.15	1.00000e-13
1054.68	1.00000e-13
1059.20	1.00000e-13
1063.73	1.00000e-13
1068.26	1.00000e-13
1072.78	1.00000e-13
1077.31	1.00000e-13
1081.84	1.00000e-13
1086.36	1.00000e-13
1090.89	1.00000e-13
1095.42	1.00000e-13
1099.94	1.00000e-13
1104.47	1.00000e-13
1108.99	1.00000e-13
1113.52	1.00000e-13
1118.05	1.00000e-13
1122.58	4.05487e-6
1127.10	1.00000e-13
1131.63	1.00000e-13
1136.15	1.00000e-13
1140.68	6.37194e-6
1145.21	1.00000e-13
1149.74	1.00000e-13
1154.26	1.00000e-13
1158.79	1.00000e-13
1163.31	1.00000e-13
1167.84	1.00000e-13
1172.37	1.00000e-13
1176.89	1.00000e-13
1181.42	1.00000e-13
1185.94	1.00000e-13
1190.47	1.00000e-13
1195.00	1.00000e-13
1199.52	1.00000e-13
1204.05	1.00000e-13
1208.58	1.00000e-13
1213.10	1.00000e-13
1217.63	1.00000e-13
1222.16	1.00000e-13
1226.68	1.00000e-13
1231.21	1.00000e-13
1235.74	1.00000e-13
1240.26	1.00000e-13
1244.79	1.00000e-13
1249.32	1.00000e-13
1253.84	1.00000e-13
1258.37	1.00000e-13
1262.90	1.00000e-13
1267.42	1.00000e-13
1271.95	1.00000e-13
1276.48	8.19084e-5
1281.00	1.10061e-3
1285.53	1.37588e-3
1290.05	1.06550e-3
1294.58	9.21383e-4
1299.11	7.87688e-4
1303.64	7.14005e-4
1308.16	6.64536e-4
1312.69	5.33274e-4
1314.30	5.48798e-4