File: data/TGA/005d-L_M/L4-corrected.txt
Filename	L3
Instrument name
Operator	Galyna
rundate	2025-02-24
Sample name	L3
[step]
Step 1
Time	Temperature	Weight	Weight	Deriv. Weight
min	°C	mg	%	% / °C
0.01	26.54	1.644	100	-4.21825E-05
4.71	40.93	1.635	99.4526	-3.15395E-05
9.46	64.02	1.634	99.3917	-3.38331E-05
14.21	87.38	1.635	99.4526	-5.25879E-05
18.96	103.04	1.63	99.1484	-0.000100243
23.71	100.58	1.624	98.7835	-4.94215E-05
28.46	110.1	1.621	98.601	-1.67963E-05
33.21	132.84	1.621	98.601	-1.91218E-05
37.96	156.71	1.618	98.4185	-2.47099E-05
42.71	180.59	1.614	98.1752	-2.52308E-05
47.46	204.36	1.616	98.2968	-2.80873E-05
52.21	228.13	1.611	97.9927	-0.000030067
56.96	251.92	1.607	97.7494	-3.32991E-05
61.71	275.71	1.604	97.5669	-4.26017E-05
66.46	298.52	1.599	97.2628	-6.67457E-05
71.21	301.42	1.595	97.0195	-0.000119822
75.96	299.67	1.593	96.8978	0.000527947
80.71	300.01	1.591	96.7762	-0.000242435
85.46	300.03	1.588	96.5937	-0.00191334
90.21	299.98	1.587	96.5328	0.0108604
94.96	300	1.587	96.5328	-0.0261471
99.71	299.99	1.583	96.2895	-0.0426593
104.46	300	1.583	96.2895	-0.0362315
109.21	300	1.577	95.9246	0.11071
113.96	300	1.579	96.0462	0.209565
118.71	300	1.563	95.073	-0.0729436
123.46	300	1.56	94.8905	0.337548
128.21	300	1.556	94.6472	-0.202362
132.96	300	1.556	94.6472	-0.172258
137.71	300	1.554	94.5255	-0.0503343
142.46	300	1.551	94.3431	0.254702
147.21	300	1.546	94.0389	0.0548534
151.96	300	1.547	94.0998	0.112889
156.71	300	1.547	94.0998	0.0475302
161.46	300	1.546	94.0389	0.104121
166.21	300	1.548	94.1606	0.145034
170.96	300	1.543	93.8564	0.120831
175.71	300	1.54	93.674	-0.0972695
180.46	300	1.54	93.674	-0.092808
185.21	300	1.539	93.6131	-0.190259
189.96	300	1.534	93.309	-0.0176737
194.71	300	1.534	93.309	0.0381981
199.46	300	1.536	93.4307	0.10066
204.21	300	1.531	93.1265	0.0837259
208.96	300	1.531	93.1265	0.0456675
213.71	300	1.531	93.1265	-0.0614
218.46	300	1.528	92.944	-0.114156
223.21	300	1.528	92.944	-0.0357013
227.96	300	1.523	92.6399	-0.0403652
232.71	300	1.521	92.5182	0.111995
237.46	300	1.52	92.4574	0.069359
242.21	300	1.52	92.4574	0.0132378
246.96	300	1.519	92.3966	0.0225168
251.71	300	1.516	92.2141	0.109928
256.46	300	1.515	92.1533	0.0959928
261.21	300	1.515	92.1533	0.0394916
265.96	300	1.513	92.0316	-0.0804662
270.71	300	1.512	91.9708	-6.56856E-05
275.46	300	1.51	91.8491	0.121874
280.21	300	1.507	91.6667	0.10993
284.96	300	1.508	91.7275	0.0231175
289.71	300	1.508	91.7275	-0.0302976
294.46	300.01	1.504	91.4842	0.028373
299.21	300	1.507	91.6667	-0.00114239
303.96	300	1.503	91.4234	0.0259915
308.71	300	1.505	91.545	-0.0613282
313.46	300	1.498	91.1192	0.0542978
318.21	300	1.501	91.3017	0.0807998
322.96	300	1.498	91.1192	-0.0111488
327.71	300	1.493	90.8151	-0.0844436
332.46	300	1.493	90.8151	-0.0319761
337.21	300	1.492	90.7543	0.0934681
341.96	300	1.489	90.5718	0.0452574
346.71	300	1.485	90.3285	0.034159
351.46	300	1.488	90.5109	-0.00435676
356.21	300	1.488	90.5109	-0.00194234
360.96	300	1.487	90.4501	0.121868
365.71	300	1.485	90.3285	0.126623
370.46	300	1.482	90.146	0.100281
375.21	300	1.481	90.0852	0.107281
379.96	300	1.477	89.8418	0.114499
384.71	300	1.478	89.9027	0.0240772
389.46	300	1.476	89.781	-0.0505622
394.21	300	1.474	89.6594	-0.151738
398.96	300	1.473	89.5985	-0.113712
403.71	300	1.466	89.1727	0.150595
408.46	300	1.465	89.1119	0.138415
413.21	300	1.466	89.1727	0.069476
417.96	300	1.467	89.2336	-0.100073
422.71	300	1.459	88.747	0.016434
427.46	300	1.463	88.9903	0.0564684
432.21	300	1.458	88.6861	-0.0184283
436.96	300	1.459	88.747	0.0514931
441.71	300	1.453	88.382	0.056907
446.46	300	1.454	88.4428	0.152009
451.21	300	1.454	88.4428	0.136362
455.96	300	1.451	88.2603	0.0350688
460.71	300	1.451	88.2603	0.0318013
465.46	300	1.447	88.017	0.0765587
470.21	300	1.446	87.9562	0.0338622
474.96	300	1.443	87.7737	-0.074728
479.71	300	1.443	87.7737	0.0203988
484.46	300	1.44	87.5912	0.0917162
489.21	300	1.438	87.4696	0.0772862
493.96	300	1.439	87.5304	0.0762717
498.71	300	1.438	87.4696	0.143427
503.46	300	1.432	87.1046	0.0520703
508.21	300	1.434	87.2263	0.0201487
512.96	300	1.431	87.0438	0.0468709
517.71	300	1.428	86.8613	0.0285352
522.46	300	1.429	86.9221	-0.088758
527.21	300	1.425	86.6788	0.104572
531.96	300	1.426	86.7397	0.117203
536.71	300	1.422	86.4964	0.0139482
541.46	300	1.421	86.4355	0.0554366
546.21	300	1.421	86.4355	0.00883869
550.96	300	1.419	86.3139	-0.027347
555.71	300	1.416	86.1314	0.0757505
560.46	300	1.418	86.253	0.15448
565.21	300	1.415	86.0706	0.0328882
569.96	300	1.413	85.9489	0.0246761
574.71	300	1.408	85.6448	-0.0805154
579.46	300	1.411	85.8273	0.0771853
584.21	300	1.412	85.8881	0.119196
588.96	300	1.409	85.7056	0.0129616
593.71	300	1.406	85.5231	-0.156831
598.46	300	1.403	85.3406	-0.052116
603.21	300	1.402	85.2798	0.0116762
607.96	300	1.402	85.2798	0.0475698
612.71	300	1.399	85.0973	0.0474715
617.46	300	1.398	85.0365	0.0999189
622.21	300	1.397	84.9757	0.0635872
626.96	300	1.396	84.9148	0.00616359
631.71	300	1.392	84.6715	-0.106758
636.46	300	1.393	84.7324	-0.127484
641.21	300	1.391	84.6107	-0.0482829
645.96	300	1.39	84.5499	0.0726027
650.71	300	1.389	84.4891	0.0568279
655.46	300	1.391	84.6107	0.0428589
660.21	300	1.389	84.4891	0.0081074
664.96	300	1.388	84.4282	-0.0784175
669.71	300	1.386	84.3066	-0.121087
674.46	300	1.385	84.2457	-0.00187735
679.21	300	1.381	84.0024	0.146294
683.96	300	1.382	84.0633	0.086441
688.71	300	1.383	84.1241	0.0651075
693.46	300	1.382	84.0633	0.101411
698.21	300	1.382	84.0633	0.0868066
702.96	300	1.38	83.9416	-0.0517429
707.71	300	1.379	83.8808	-0.130102
712.46	300	1.375	83.6375	-0.16558
717.21	300	1.375	83.6375	-0.0755536
721.96	300	1.372	83.455	0.101347
726.71	300	1.371	83.3942	0.0980357
731.46	300	1.371	83.3942	0.0783236
736.21	300	1.37	83.3333	0.0943425
740.96	300	1.369	83.2725	0.0341493
745.71	300	1.37	83.3333	-0.0886443
750.46	300	1.366	83.09	-0.150872
755.21	300	1.363	82.9075	-0.116184
759.96	300	1.364	82.9684	-0.0412235
764.71	300	1.36	82.7251	0.110182
769.46	300	1.358	82.6034	0.0355503
774.21	300	1.356	82.4818	0.136522
778.96	300	1.355	82.4209	0.150816
783.71	300	1.356	82.4818	0.12461
788.46	300	1.355	82.4209	-0.0330482
793.21	300	1.354	82.3601	-0.175904
797.96	300	1.352	82.2384	-0.0352498
802.71	300	1.352	82.2384	0.050324
807.46	300	1.349	82.056	-0.00328082
812.21	300	1.347	81.9343	-0.0410102
816.96	300	1.347	81.9343	0.0828004
821.71	300	1.346	81.8735	0.0750241
826.46	300	1.346	81.8735	0.051776
831.21	300	1.343	81.691	-0.12718
835.96	300	1.341	81.5693	-0.15698
840.71	300	1.341	81.5693	-0.0503275
845.46	300	1.336	81.2652	0.119407
850.21	300	1.34	81.5085	0.0711382
854.96	300	1.335	81.2044	0.0282293
859.71	300	1.335	81.2044	0.030567
864.46	300	1.333	81.0827	0.00273077
869.21	300	1.33	80.9002	0.00412225
873.96	300	1.327	80.7178	-0.174781
878.71	300	1.328	80.7786	-0.0843562
883.46	300	1.327	80.7178	0.0650913
888.21	300	1.324	80.5353	0.0696372
892.96	300	1.323	80.4745	0.045396
897.71	300	1.323	80.4745	0.0378243
902.46	300	1.321	80.3528	0.0176448
907.21	300	1.321	80.3528	-0.114826
911.96	300	1.318	80.1703	-0.116624
916.71	300	1.315	79.9878	-0.173603
921.46	300	1.315	79.9878	0.0992239
926.21	300	1.314	79.927	0.0472269
930.96	300	1.314	79.927	0.106155
935.71	300	1.312	79.8054	0.059958
940.46	300	1.31	79.6837	0.0725947
945.21	300	1.309	79.6229	0.0502186
949.96	300	1.312	79.8054	0.129621
954.71	300	1.303	79.2579	-0.0952526
959.46	300	1.304	79.3187	-0.0771696
964.21	300	1.303	79.2579	-0.0952817
968.96	300	1.304	79.3187	0.0355282
973.71	300	1.302	79.1971	0.0441586
978.46	300	1.303	79.2579	0.0615225
983.21	300	1.298	78.9538	0.0394427
987.96	300	1.297	78.8929	0.0532261
992.71	300	1.299	79.0146	-0.158092
997.46	300	1.294	78.7105	-0.143011
1002.21	300	1.293	78.6496	-0.173391
1006.96	300	1.29	78.4672	0.0710854
1011.71	300	1.288	78.3455	-0.0120881
1016.46	300	1.289	78.4063	0.0620229
1021.21	300	1.288	78.3455	0.0547879
1025.96	300	1.287	78.2847	0.0729533
1030.71	300	1.286	78.2238	0.138641
1035.46	300	1.284	78.1022	0.105833
1040.21	300	1.282	77.9805	-0.227222
1044.96	300	1.28	77.8589	-0.194251
1049.71	300	1.279	77.7981	-0.0215845
1054.46	300	1.277	77.6764	0.107011
1059.21	300	1.276	77.6156	-0.0159477
1063.96	300	1.274	77.4939	0.0121706
1068.71	300	1.273	77.4331	0.0537279
1073.46	300	1.274	77.4939	0.0867784
1078.21	300	1.271	77.3114	0.107983
1082.96	300	1.27	77.2506	-0.226315
1087.71	300	1.268	77.129	-0.244641
1092.46	300	1.267	77.0681	-0.134387
1097.21	300	1.268	77.129	0.0889728
1101.96	300	1.263	76.8248	0.115727
1106.71	300	1.26	76.6423	0.0818933
1111.46	300	1.26	76.6423	-0.10322
1116.21	300	1.259	76.5815	-0.114887
1120.96	300	1.257	76.4599	-0.111455
1125.71	300	1.257	76.4599	0.0382771
1130.46	300	1.254	76.2774	0.0431774
1135.21	300	1.254	76.2774	0.0563949
1139.96	300	1.254	76.2774	0.00971435
1144.71	300	1.251	76.0949	-0.0970301
1149.46	300	1.249	75.9732	0.0480752
1154.21	300	1.249	75.9732	0.0676949
1158.96	300	1.246	75.7908	-0.0290051
1163.71	300	1.245	75.7299	-0.0867392
1168.46	300	1.249	75.9732	0.0997271
1173.21	300	1.245	75.7299	0.131344
1177.96	300	1.241	75.4866	0.1503
1182.71	300	1.241	75.4866	0.0193563
1187.46	300	1.24	75.4258	0.0382237
1192.21	300	1.234	75.0608	0.0648971
1196.96	300	1.238	75.3041	0.0376221
1201.71	300	1.237	75.2433	-0.10142
1206.46	300	1.234	75.0608	-0.099636
1211.21	300	1.232	74.9392	0.0372906
1215.96	300	1.233	75	-0.0520235
1220.71	300	1.231	74.8783	-0.068163
1225.46	300	1.23	74.8175	0.0578121
1230.21	300	1.228	74.6959	0.145415
1234.96	300	1.227	74.635	0.137066
1239.71	300	1.225	74.5134	-0.0666158
1244.46	300	1.224	74.4526	-0.153716
1249.21	300	1.222	74.3309	-0.0390121
1253.96	300	1.225	74.5134	0.011774
1258.71	300	1.217	74.0268	-2.29028E-05
1263.46	300	1.22	74.2092	-4.62877E-05
1268.21	322.81	1.217	74.0268	-0.000329778
1272.96	369.26	1.185	72.0803	-0.00161739
1277.71	417.4	0.688	41.8491	-0.00233549
1282.46	465.02	0.013	0.790754	-0.00160063
1287.21	512.68	0.009	0.547445	-0.000162374
1291.96	560.31	0.013	0.790754	4.2695E-06
1296.71	607.91	0.012	0.729927	7.78918E-06
1301.46	655.5	0.01	0.608273	1.23989E-05
1306.21	703.08	0.015	0.912409	1.85801E-05
1310.96	750.64	0.021	1.27737	2.19871E-05
1314.54	786.52			0.000021602