File: data/TGA/005d-L_M/L4.txt
Filename	L4
Instrument name
Operator	Galyna
rundate	2025-02-24
Sample name	L4
[step]
Step 1
Time	Temperature	Weight	Weight	Deriv. Weight
min	°C	mg	%	% / °C
0.01	26.54	432.332	99.999	-4.21825e-5
5.21	43.53	432.328	99.998	-3.15995e-5
10.46	68.73	432.327	99.998	-3.71053e-5
15.71	95.05	432.322	99.996	-6.22815e-5
20.96	102.34	432.313	99.995	-1.21759e-4
26.21	101.10	432.308	99.993	-2.31224e-5
31.46	124.44	432.311	99.994	-1.58803e-5
36.71	150.38	432.308	99.993	-2.09062e-5
41.96	176.84	432.305	99.993	-2.58988e-5
47.21	203.11	432.301	99.992	-2.76369e-5
52.46	229.38	432.299	99.991	-2.96361e-5
57.71	255.68	432.295	99.990	-3.44247e-5
62.96	281.97	432.292	99.990	-4.69335e-5
68.21	301.35	432.285	99.988	-8.15343e-5
73.46	300.26	432.281	99.987	-9.84587e-5
78.71	299.82	432.277	99.986	4.61779e-4
83.96	300.06	432.278	99.986	-1.92636e-3
89.21	299.99	432.277	99.986	0.0104413
94.46	300.00	432.273	99.985	-0.0102476
99.71	299.99	432.271	99.985	-0.0426593
104.96	300.00	432.270	99.984	-0.0391850
110.21	300.00	432.266	99.983	0.122828
115.46	300.00	432.254	99.981	-0.0584596
120.71	300.00	432.250	99.980	0.326313
125.96	300.00	432.249	99.980	-0.105356
131.21	300.00	432.246	99.979	-0.194366
136.46	300.00	432.243	99.978	-0.0848539
141.71	300.00	432.242	99.978	0.263718
146.96	300.00	432.236	99.977	0.0773079
152.21	300.00	432.237	99.977	0.121845
157.46	300.00	432.235	99.976	0.0679478
162.71	300.00	432.232	99.976	0.111048
167.96	300.00	432.241	99.978	0.137820
173.21	300.00	432.231	99.976	0.0953446
178.46	300.00	432.230	99.975	-0.0745077
183.71	300.00	432.227	99.974	-0.147896
188.96	300.00	432.226	99.974	-0.117340
194.21	300.00	432.223	99.974	0.0372590
199.46	300.00	432.224	99.974	0.100660
204.71	300.00	432.219	99.973	0.0813002
209.96	300.00	432.222	99.973	6.31461e-3
215.21	300.00	432.217	99.972	-0.102476
220.46	300.00	432.216	99.972	-0.0954011
225.71	300.00	432.209	99.970	-0.0315079
230.96	300.00	432.213	99.971	0.0969165
236.21	300.00	432.208	99.970	0.0905641
241.46	300.00	432.211	99.971	0.0214339
246.71	300.00	432.206	99.970	0.0265591
251.96	300.00	432.204	99.969	0.109538
257.21	300.00	432.204	99.969	0.103514
262.46	300.00	432.205	99.969	0.0269128
267.71	300.00	432.203	99.969	-0.0552782
272.96	300.00	432.196	99.967	0.0542307
278.21	300.00	432.197	99.968	0.113215
283.46	300.00	432.196	99.967	-0.0435152
288.71	300.00	432.195	99.967	-0.0265889
293.96	300.00	432.193	99.967	0.0261318
299.21	300.00	432.195	99.967	-1.14239e-3
304.46	300.00	432.190	99.966	0.0246535
309.71	300.00	432.188	99.966	-0.0196420
314.96	300.00	432.188	99.966	0.0622428
320.21	300.00	432.189	99.966	0.0729344
325.46	300.00	432.184	99.965	-0.0688889
330.71	300.00	432.182	99.964	-0.0640645
335.96	300.00	432.180	99.964	0.0775415
341.21	300.00	432.178	99.963	0.0589575
346.46	300.00	432.179	99.964	0.0280031
351.71	300.00	432.174	99.962	-8.49261e-3
356.96	300.00	432.171	99.962	0.0215109
362.21	300.00	432.172	99.962	0.121177
367.46	300.00	432.176	99.963	0.0501921
372.71	300.00	432.170	99.961	0.107794
377.96	300.00	432.167	99.961	0.111676
383.21	300.00	432.169	99.961	0.0644199
388.46	300.00	432.165	99.960	-8.54569e-3
393.71	300.00	432.165	99.960	-0.161976
398.96	300.00	432.161	99.959	-0.113712
404.21	300.00	432.157	99.958	0.198590
409.46	300.00	432.155	99.958	0.125026
414.71	300.00	432.152	99.957	6.28435e-3
419.96	300.00	432.155	99.958	-8.17935e-3
425.21	300.00	432.151	99.957	-0.0521033
430.46	300.00	432.146	99.956	0.103066
435.71	300.00	432.143	99.955	-0.0438146
440.96	300.00	432.143	99.955	0.0602021
446.21	300.00	432.142	99.955	0.144763
451.46	300.00	432.141	99.955	0.110997
456.71	300.00	432.138	99.954	0.0467015
461.96	300.00	432.136	99.954	0.0592670
467.21	300.00	432.132	99.953	0.0256720
472.46	300.00	432.133	99.953	-1.61890e-3
477.71	300.00	432.130	99.952	-0.0677397
482.96	300.00	432.130	99.952	0.0865061
488.21	300.00	432.130	99.952	0.0495023
493.46	300.00	432.132	99.952	0.0441843
498.71	300.00	432.126	99.951	0.143427
503.96	300.00	432.123	99.950	0.0557593
509.21	300.00	432.120	99.950	0.0112998
514.46	300.00	432.119	99.950	0.0749667
519.71	300.00	432.117	99.949	-0.0851420
524.96	300.00	432.116	99.949	0.0294619
530.21	300.00	432.115	99.949	0.140546
535.46	300.00	432.111	99.948	0.0194768
540.71	300.00	432.103	99.946	0.0905767
545.96	300.00	432.108	99.947	8.63518e-3
551.21	300.00	432.109	99.947	-0.0262721
556.46	300.00	432.106	99.946	0.124329
561.71	300.00	432.107	99.947	0.141902
566.96	300.00	432.102	99.946	0.0321992
572.21	300.00	432.100	99.945	-0.0264461
577.46	300.00	432.099	99.945	-0.0137831
582.71	300.00	432.098	99.945	0.111057
587.96	300.00	432.095	99.944	0.0455939
593.21	300.00	432.093	99.944	-0.154067
598.46	300.00	432.091	99.943	-0.0521160
603.71	300.00	432.090	99.943	0.0295389
608.96	300.00	432.086	99.942	0.0154826
614.21	300.00	432.088	99.942	0.0718659
619.46	300.00	432.086	99.942	0.0690722
624.71	300.00	432.085	99.942	0.0807071
629.96	300.00	432.085	99.942	-0.0769698
635.21	300.00	432.081	99.941	-0.130844
640.46	300.00	432.080	99.941	-0.0803185
645.71	300.00	432.078	99.940	0.0605246
650.96	300.00	432.078	99.940	0.0542881
656.21	300.00	432.078	99.940	0.0387422
661.46	300.00	432.077	99.940	-0.0257491
666.71	300.00	432.076	99.940	-0.0801590
671.96	300.00	432.071	99.939	-0.0739306
677.21	300.00	432.075	99.939	0.155824
682.46	300.00	432.066	99.937	0.126242
687.71	300.00	432.069	99.938	-0.0120396
692.96	300.00	432.070	99.938	0.0991381
698.21	300.00	432.070	99.938	0.0868066
703.46	300.00	432.067	99.938	-0.0501739
708.71	300.00	432.067	99.938	-0.139575
713.96	300.00	432.064	99.937	-0.141291
719.21	300.00	432.061	99.936	0.0628836
724.46	300.00	432.061	99.936	0.155082
729.71	300.00	432.058	99.935	0.0860623
734.96	300.00	432.060	99.936	0.102220
740.21	300.00	432.058	99.935	0.0768486
745.46	300.00	432.055	99.935	-0.0760280
750.71	300.00	432.053	99.934	-0.151325
755.96	300.00	432.055	99.935	-0.118197
761.21	300.00	432.047	99.933	-0.0714046
766.46	300.00	432.047	99.933	0.0922734
771.71	300.00	432.046	99.933	0.112343
776.96	300.00	432.047	99.933	0.159593
782.21	300.00	432.044	99.932	0.147361
787.46	300.00	432.043	99.932	1.00770e-3
792.71	300.00	432.041	99.931	-0.150650
797.96	300.00	432.040	99.931	-0.0352498
803.21	300.00	432.041	99.931	0.0406016
808.46	300.00	432.035	99.930	-0.0488751
813.71	300.00	432.035	99.930	0.0291546
818.96	300.00	432.032	99.930	0.0721094
824.21	300.00	432.034	99.930	0.100081
829.46	300.00	432.029	99.929	-0.0972039
834.71	300.00	432.029	99.929	-0.159410
839.96	300.00	432.028	99.929	-0.0792958
845.21	300.00	432.026	99.928	0.114188
850.46	300.00	432.024	99.928	0.0688970
855.71	300.00	432.025	99.928	5.47451e-3
860.96	300.00	432.022	99.927	0.0141982
866.21	300.00	432.020	99.927	-0.0426553
871.46	300.00	432.016	99.926	-0.111255
876.71	300.00	432.013	99.925	-0.130102
881.96	300.00	432.017	99.926	0.0194118
887.21	300.00	432.012	99.925	0.0853072
892.46	300.00	432.012	99.925	0.0424761
897.71	300.00	432.011	99.924	0.0378243
902.96	300.00	432.009	99.924	-3.81791e-3
908.21	300.00	432.008	99.924	-0.115633
913.46	300.00	432.004	99.923	-0.167520
918.71	300.00	432.003	99.923	-0.128719
923.96	300.00	432.003	99.923	0.0946042
929.21	300.00	432.001	99.922	0.107281
934.46	300.00	431.999	99.922	0.0859296
939.71	300.00	431.997	99.921	0.0787360
944.96	300.00	431.998	99.922	0.0395386
950.21	300.00	431.991	99.920	0.120583
955.46	300.00	431.994	99.921	-0.107940
960.71	300.00	431.993	99.920	-0.0936145
965.96	300.00	431.991	99.920	-0.0423398
971.21	300.00	431.991	99.920	0.0193300
976.46	300.00	431.988	99.919	0.0891342
981.71	300.00	431.987	99.919	0.0529961
986.96	300.00	431.986	99.919	0.0322416
992.21	300.00	431.985	99.919	-0.139005
997.46	300.00	431.982	99.918	-0.143011
1002.71	300.00	431.985	99.919	-0.164358
1007.96	300.00	431.978	99.917	0.0774518
1013.21	300.00	431.977	99.917	6.96707e-3
1018.46	300.00	431.976	99.917	0.0303836
1023.71	300.00	431.977	99.917	0.0666214
1028.96	300.00	431.972	99.916	0.123650
1034.21	300.00	431.971	99.915	0.193010
1039.46	300.00	431.971	99.915	-0.211987
1044.71	300.00	431.969	99.915	-0.200728
1049.96	300.00	431.968	99.915	-2.12511e-3
1055.21	300.00	431.965	99.914	0.0545770
1060.46	300.00	431.963	99.914	4.66487e-3
1065.71	300.00	431.960	99.913	0.0268945
1070.96	300.00	431.959	99.913	0.0631312
1076.21	300.00	431.961	99.913	0.162357
1081.46	300.00	431.959	99.912	-0.125230
1086.71	300.00	431.957	99.912	-0.242144
1091.96	300.00	431.953	99.911	-0.172417
1097.21	300.00	431.956	99.912	0.0889728
1102.46	300.00	431.950	99.910	0.109348
1107.71	300.00	431.948	99.910	0.0338955
1112.96	300.00	431.948	99.910	-0.112543
1118.21	300.00	431.945	99.909	-0.110749
1123.46	300.00	431.944	99.909	0.0347559
1128.71	300.00	431.943	99.909	0.0451650
1133.96	300.00	431.944	99.909	0.0605875
1139.21	300.00	431.940	99.908	0.0174223
1144.46	300.00	431.938	99.908	-0.0871396
1149.71	300.00	431.934	99.907	0.0618250
1154.96	300.00	431.935	99.907	0.0366605
1160.21	300.00	431.936	99.907	-0.0521218
1165.46	300.00	431.933	99.907	-0.0448452
1170.71	300.00	431.932	99.906	0.156570
1175.96	300.00	431.931	99.906	0.0846063
1181.21	300.00	431.928	99.905	0.0959977
1186.46	300.00	431.928	99.905	0.0236844
1191.71	300.00	431.927	99.905	0.0631760
1196.96	300.00	431.926	99.905	0.0376221
1202.21	300.00	431.925	99.905	-0.105422
1207.46	300.00	431.922	99.904	-0.0896831
1212.71	300.00	431.920	99.904	0.0691222
1217.96	300.00	431.918	99.903	-6.45945e-3
1223.21	300.00	431.918	99.903	-5.63257e-4
1228.46	300.00	431.916	99.903	0.133890
1233.71	300.00	431.915	99.902	0.172518
1238.96	300.00	431.914	99.902	-0.0559936
1244.21	300.00	431.911	99.901	-0.148352
1249.46	300.00	431.912	99.902	-0.0315983
1254.71	300.00	431.901	99.899	0.0282544
1259.96	300.00	431.908	99.901	-2.03931e-5
1265.21	300.45	431.909	99.901	-9.30272e-5
1270.46	344.11	431.901	99.899	-8.32057e-4
1275.71	397.26	431.722	99.858	-2.20460e-3
1280.96	449.98	430.733	99.629	-1.98557e-3
1286.21	502.66	430.697	99.621	-3.81068e-4
1291.46	555.29	430.697	99.621	4.38761e-6
1296.71	607.91	430.700	99.621	7.78918e-6
1301.96	660.51	430.703	99.622	1.35010e-5
1307.21	713.09	430.701	99.622	1.88903e-5
1312.46	765.66	430.713	99.624	2.15334e-5
1314.54	786.52	430.710	99.624	2.16020e-5