File: data/TGA/005d-L_M/L4_000001 -temp_104 AMU_XIC
Time	Ion Current
min	mA
0.00	1.20372e-4
4.53	2.10506e-4
9.05	1.75055e-4
13.58	9.53474e-5
18.10	1.04500e-4
22.63	9.21035e-5
27.16	8.95547e-5
31.69	5.46828e-5
36.21	7.24084e-5
40.74	3.24390e-5
45.26	6.87011e-5
49.79	5.19024e-5
54.32	4.59938e-5
58.85	2.87317e-5
63.37	4.54146e-5
67.90	5.15548e-5
72.43	1.15853e-5
76.95	3.69573e-5
81.48	1.76097e-5
86.00	2.13170e-5
90.53	2.98902e-5
95.06	1.85366e-5
99.58	3.44085e-5
104.11	2.22439e-5
108.64	1.37866e-5
113.16	2.86158e-5
117.69	1.00000e-13
122.22	1.06585e-5
126.74	4.51829e-6
131.27	1.47134e-5
135.79	1.00000e-13
140.32	2.89634e-6
144.85	1.58719e-5
149.37	1.00000e-13
153.90	1.00000e-13
158.43	1.00000e-13
162.95	9.61584e-6
167.48	5.16707e-5
172.01	1.00000e-13
176.53	1.00000e-13
181.06	2.38658e-5
185.59	2.80365e-5
190.11	2.01585e-5
194.64	1.00000e-13
199.17	1.00000e-13
203.69	1.00000e-13
208.22	5.79267e-6
212.75	1.00000e-13
217.27	1.00000e-13
221.80	1.56402e-5
226.33	1.00000e-13
230.85	1.00000e-13
235.38	1.00000e-13
239.91	1.00000e-13
244.43	1.00000e-13
248.96	1.00000e-13
253.48	1.00000e-13
258.01	1.00000e-13
262.54	1.00000e-13
267.06	1.00000e-13
271.59	1.00000e-13
276.12	1.00000e-13
280.64	1.00000e-13
285.17	1.00000e-13
289.69	1.00000e-13
294.22	3.03536e-5
298.75	1.00000e-13
303.27	1.00000e-13
307.80	1.15853e-5
312.33	1.00000e-13
316.85	1.85366e-6
321.38	1.00000e-13
325.91	3.59146e-6
330.44	1.00000e-13
334.96	1.00000e-13
339.49	1.00000e-13
344.01	1.23963e-5
348.54	1.00000e-13
353.07	1.88841e-5
357.59	1.00000e-13
362.12	1.00000e-13
366.65	1.07744e-5
371.17	1.00000e-13
375.70	1.00000e-13
380.22	1.00000e-13
384.75	1.00000e-13
389.28	1.00000e-13
393.81	1.00000e-13
398.33	1.98109e-5
402.86	4.63414e-6
407.38	1.00000e-13
411.91	1.00000e-13
416.44	1.00000e-13
420.96	1.00000e-13
425.49	1.00000e-13
430.02	1.00000e-13
434.54	1.00000e-13
439.07	1.00000e-13
443.60	1.00000e-13
448.12	1.00000e-13
452.65	1.00000e-13
457.17	1.00000e-13
461.70	1.00000e-13
466.23	4.86585e-6
470.76	1.00000e-13
475.28	1.27439e-6
479.81	1.00000e-13
484.33	1.00000e-13
488.86	1.00000e-13
493.39	2.43292e-6
497.92	1.00000e-13
502.44	1.00000e-13
506.97	8.10974e-7
511.49	1.00000e-13
516.02	4.80792e-5
520.55	1.00000e-13
525.07	1.00000e-13
529.60	1.00000e-13
534.13	1.00000e-13
538.65	1.00000e-13
543.18	1.00000e-13
547.71	1.00000e-13
552.23	1.00000e-13
556.76	1.00000e-13
561.29	1.00000e-13
565.81	2.43292e-6
570.34	1.00000e-13
574.86	1.00000e-13
579.39	1.00000e-13
583.92	1.00000e-13
588.44	1.00000e-13
592.97	1.00000e-13
597.50	3.93902e-6
602.02	1.00000e-13
606.55	1.00000e-13
611.08	1.64512e-5
615.60	2.20122e-6
620.13	1.00000e-13
624.65	1.00000e-13
629.18	1.00000e-13
633.71	6.95121e-7
638.24	1.00000e-13
642.76	1.00000e-13
647.29	1.00000e-13
651.81	1.00000e-13
656.34	8.10974e-6
660.87	6.71950e-6
665.39	2.08536e-6
669.92	1.00000e-13
674.45	1.04268e-6
678.97	1.00000e-13
683.50	1.00000e-13
688.03	1.00000e-13
692.56	1.00000e-13
697.08	1.00000e-13
701.61	1.00000e-13
706.13	1.00000e-13
710.66	1.00000e-13
715.19	1.00000e-13
719.71	4.54146e-5
724.24	2.31707e-6
728.77	9.03657e-6
733.29	1.00000e-13
737.82	1.00000e-13
742.35	1.00000e-13
746.87	1.00000e-13
751.40	2.15487e-5
755.92	7.41462e-6
760.45	2.78048e-6
764.98	7.41462e-6
769.50	1.00000e-13
774.03	1.00000e-13
778.56	1.00000e-13
783.08	1.00000e-13
787.61	1.00000e-13
792.14	1.00000e-13
796.67	1.00000e-13
801.19	1.00000e-13
805.72	1.00000e-13
810.24	3.40609e-5
814.77	1.00793e-5
819.30	1.00000e-13
823.82	1.00000e-13
828.35	1.00000e-13
832.87	9.38413e-6
837.40	1.73780e-6
841.93	1.00000e-13
846.45	1.00000e-13
850.98	1.00000e-13
855.51	1.00000e-13
860.03	1.00000e-13
864.56	1.00000e-13
869.09	1.00000e-13
873.61	1.00000e-13
878.14	1.00000e-13
882.67	1.58719e-5
887.19	1.00000e-13
891.72	1.00000e-13
896.24	3.04695e-5
900.77	1.00000e-13
905.30	1.00000e-13
909.83	1.00000e-13
914.35	1.00000e-13
918.88	1.00000e-13
923.41	1.00000e-13
927.93	6.60365e-6
932.46	1.00000e-13
936.98	1.00000e-13
941.51	1.15853e-7
946.04	1.00000e-13
950.56	9.38413e-6
955.09	1.00000e-13
959.62	1.00000e-13
964.14	1.00000e-13
968.67	1.00000e-13
973.20	1.45975e-5
977.72	1.00000e-13
982.25	1.00000e-13
986.78	1.00000e-13
991.30	1.00000e-13
995.83	1.00000e-13
1000.36	1.00000e-13
1004.88	2.01585e-5
1009.41	6.60365e-6
1013.94	1.00000e-13
1018.46	1.00000e-13
1022.99	1.00000e-13
1027.51	1.00000e-13
1032.04	1.00000e-13
1036.57	1.00000e-13
1041.10	1.00000e-13
1045.62	4.63414e-7
1050.15	1.63353e-5
1054.67	1.00000e-13
1059.20	1.00000e-13
1063.73	1.00000e-13
1068.26	1.00000e-13
1072.78	1.00000e-13
1077.31	1.00000e-13
1081.83	1.00000e-13
1086.36	1.00000e-13
1090.89	1.00000e-13
1095.41	1.00000e-13
1099.94	1.00000e-13
1104.46	1.00000e-13
1108.99	1.00000e-13
1113.52	5.79267e-7
1118.04	1.00000e-13
1122.57	1.00000e-13
1127.10	1.00000e-13
1131.62	1.13536e-5
1136.15	1.00000e-13
1140.68	1.00000e-13
1145.20	1.00000e-13
1149.73	1.00000e-13
1154.26	1.00000e-13
1158.78	1.00000e-13
1163.31	1.00000e-13
1167.84	1.00000e-13
1172.36	1.00000e-13
1176.89	2.06219e-5
1181.42	1.00000e-13
1185.94	1.00000e-13
1190.47	1.00000e-13
1194.99	1.26280e-5
1199.52	1.00000e-13
1204.05	1.00000e-13
1208.57	1.00000e-13
1213.10	1.00000e-13
1217.63	1.00000e-13
1222.15	1.00000e-13
1226.68	2.78048e-6
1231.21	1.00000e-13
1235.74	1.00000e-13
1240.26	1.00000e-13
1244.79	1.00000e-13
1249.31	1.00000e-13
1253.84	1.00000e-13
1258.37	1.00000e-13
1262.89	1.42500e-5
1267.42	2.93109e-5
1271.95	2.44451e-5
1276.47	1.00000e-13
1281.00	3.40030e-4
1285.53	8.20822e-4
1290.05	6.98133e-4
1294.58	4.59127e-4
1299.10	3.59030e-4
1303.63	2.95658e-4
1308.16	2.47463e-4
1312.68	2.78743e-4
1314.30	2.76195e-4