File: data/TGA/005d-L_M/M2.txt
Filename	M2
Instrument name
Operator	Gwenael
rundate	2025-02-10
Sample name	M2
[step]
Step 1
Time	Temperature	Weight	Weight	Deriv. Weight
min	°C	mg	%	% / °C
0,03	25,19	1,812	100,036	5,70909e-3
4,71	39,94	1,821	100,557	7,78365e-4
9,46	62,85	1,820	100,503	-4,37309e-3
14,21	86,38	1,818	100,364	-0,0113912
18,96	102,96	1,811	99,995	-0,0211015
23,71	100,77	1,807	99,805	-6,79862e-3
28,46	108,98	1,809	99,899	-1,33893e-3
33,21	131,70	1,808	99,822	-2,88645e-3
37,96	155,55	1,806	99,734	-4,13753e-3
42,71	179,43	1,805	99,649	-6,07319e-3
47,46	203,21	1,801	99,461	-0,0101999
52,21	226,97	1,796	99,160	-0,0153194
56,96	250,77	1,788	98,717	-0,0186661
61,71	274,56	1,779	98,256	-0,0219300
66,46	297,79	1,770	97,741	-0,0299546
71,21	301,56	1,762	97,301	-0,0517307
75,96	299,68	1,757	97,030	0,271931
80,71	299,99	1,753	96,785	0,0770961
85,46	300,05	1,749	96,578	-1,13215
90,21	299,99	1,744	96,324	5,81643
94,96	300,00	1,740	96,081	-15,2255
99,71	300,00	1,735	95,829	-30,3221
104,46	300,00	1,730	95,534	93,2619
109,21	300,00	1,726	95,293	-52,0801
113,96	300,00	1,720	94,993	40,2772
118,71	300,00	1,714	94,665	78,1727
123,46	300,00	1,709	94,343	127,867
128,21	300,00	1,704	94,077	165,750
132,96	300,00	1,698	93,746	94,2511
137,71	300,00	1,692	93,417	-69,1223
142,46	300,00	1,685	93,064	-144,797
147,21	300,00	1,680	92,752	79,2590
151,96	300,00	1,674	92,415	-51,7558
156,71	300,00	1,668	92,089	35,1147
161,46	300,00	1,662	91,745	-81,3207
166,21	300,00	1,656	91,424	-96,3085
170,96	300,00	1,650	91,115	-91,5398
175,71	300,00	1,644	90,797	-49,8808
180,46	300,00	1,639	90,510	151,358
185,21	300,00	1,633	90,182	92,5090
189,96	300,00	1,628	89,894	-69,1190
194,71	300,00	1,623	89,628	-85,4191
199,46	300,00	1,618	89,343	-55,9119
204,21	300,00	1,613	89,079	28,8616
208,96	300,00	1,608	88,813	-79,2873
213,71	300,00	1,604	88,560	48,7424
218,46	300,00	1,599	88,305	26,5818
223,21	300,00	1,595	88,072	-4,95457
227,96	300,00	1,591	87,825	-91,2991
232,71	300,00	1,587	87,634	31,8085
237,46	300,00	1,583	87,396	6,67666
242,21	300,00	1,579	87,179	-142,542
246,96	300,00	1,575	86,973	35,9492
251,71	300,00	1,571	86,735	90,1266
256,46	300,00	1,568	86,556	38,4807
261,21	300,00	1,564	86,378	-35,6341
265,96	300,00	1,561	86,202	52,9384
270,71	300,00	1,558	86,016	-64,6644
275,46	300,00	1,554	85,826	36,1386
280,21	300,00	1,551	85,664	9,27796
284,96	300,00	1,548	85,459	30,6217
289,71	300,00	1,545	85,293	-26,4274
294,46	300,00	1,541	85,093	-13,9916
299,21	300,00	1,539	84,953	-77,9564
303,96	300,00	1,535	84,769	2,35278
308,71	300,00	1,532	84,578	41,7823
313,46	300,00	1,529	84,419	79,6349
318,21	300,00	1,526	84,262	-4,50850
322,96	300,00	1,523	84,081	-71,2502
327,71	300,00	1,520	83,906	2,79739
332,46	300,00	1,517	83,762	66,9981
337,21	300,00	1,514	83,607	-84,3610
341,96	300,00	1,511	83,443	-99,5197
346,71	300,00	1,508	83,295	10,8259
351,46	300,00	1,506	83,143	-38,1743
356,21	300,00	1,503	82,994	-0,736690
360,96	300,00	1,500	82,842	12,1335
365,71	300,00	1,498	82,692	45,4695
370,46	300,00	1,495	82,549	-1,09161
375,21	300,00	1,492	82,395	-31,5178
379,96	300,00	1,489	82,241	-42,1619
384,71	300,00	1,487	82,091	-25,0157
389,46	300,00	1,484	81,949	-0,448855
394,21	300,00	1,482	81,811	50,3795
398,96	300,00	1,479	81,684	19,3724
403,71	300,00	1,477	81,560	-44,5358
408,46	300,00	1,475	81,449	22,9633
413,21	300,00	1,473	81,336	39,9550
417,96	300,00	1,471	81,232	24,3652
422,71	300,00	1,469	81,104	12,7225
427,46	300,00	1,467	80,992	-0,216206
432,21	300,00	1,465	80,883	-49,2636
436,96	300,00	1,463	80,775	4,22862
441,71	300,00	1,461	80,653	-8,37390
446,46	300,00	1,459	80,567	19,3200
451,21	300,00	1,457	80,434	15,3086
455,96	300,00	1,455	80,315	30,1949
460,71	300,00	1,453	80,210	13,8247
465,46	300,00	1,451	80,119	-16,3261
470,21	300,00	1,449	79,991	2,59795
474,96	300,00	1,446	79,851	-5,78128
479,71	300,00	1,444	79,739	3,14693
484,46	300,00	1,442	79,621	-6,40303
489,21	300,00	1,440	79,520	5,97892
493,96	300,00	1,438	79,390	-16,1034
498,71	300,00	1,435	79,217	18,0221
503,46	300,00	1,433	79,117	21,1811
508,21	300,00	1,431	79,012	11,2325
512,96	300,00	1,429	78,891	23,8974
517,71	300,00	1,426	78,760	-28,9038
522,46	300,00	1,424	78,634	-23,9370
527,21	300,00	1,422	78,509	9,29842
531,96	300,00	1,419	78,372	19,7642
536,71	300,00	1,417	78,242	-25,1106
541,46	300,00	1,415	78,125	-7,51283
546,21	300,00	1,412	77,988	10,0358
550,96	300,00	1,410	77,861	14,6672
555,71	300,00	1,408	77,736	-6,73022
560,46	300,00	1,406	77,611	-17,8257
565,21	300,00	1,403	77,480	36,4657
569,96	300,00	1,401	77,364	-14,9908
574,71	300,00	1,399	77,254	-16,5037
579,46	300,00	1,397	77,113	-11,5680
584,21	300,00	1,394	76,999	13,1500
588,96	300,00	1,392	76,888	-27,4567
593,71	300,00	1,390	76,759	55,3034
598,46	300,00	1,388	76,639	-15,5544
603,21	300,00	1,386	76,518	-2,23061
607,96	300,00	1,383	76,388	-25,0316
612,71	300,00	1,382	76,314	40,2752
617,46	300,00	1,380	76,185	38,4986
622,21	300,00	1,378	76,074	-17,7587
626,96	300,00	1,376	75,959	-8,93902
631,71	300,00	1,373	75,830	9,35927
636,46	300,00	1,372	75,735	4,53744
641,21	300,00	1,370	75,623	-31,5100
645,96	300,00	1,368	75,517	15,9046
650,71	300,00	1,366	75,403	26,5327
655,46	300,00	1,364	75,292	-9,53637
660,21	300,00	1,361	75,179	10,6417
664,96	300,00	1,359	75,066	17,5121
669,71	300,00	1,358	74,987	-15,4474
674,46	300,00	1,356	74,871	-34,7195
679,21	300,00	1,354	74,740	-16,3701
683,96	300,00	1,352	74,638	-10,4939
688,71	300,00	1,349	74,506	19,0843
693,46	300,00	1,348	74,419	7,25630
698,21	300,00	1,346	74,313	3,79683
702,96	300,00	1,344	74,204	17,7612
707,71	300,00	1,341	74,062	-5,23376
712,46	300,00	1,340	73,986	-16,4450
717,21	300,00	1,337	73,851	0,791103
721,96	300,00	1,336	73,794	3,94892
726,71	300,00	1,334	73,672	-19,7063
731,46	300,00	1,332	73,545	10,6197
736,21	300,00	1,330	73,442	2,61080
740,96	300,00	1,328	73,336	-29,2760
745,71	300,00	1,326	73,244	2,47257
750,46	300,00	1,325	73,138	20,2436
755,21	300,00	1,323	73,038	9,55907
759,96	300,00	1,321	72,930	4,40540
764,71	300,00	1,319	72,837	-4,96154
769,46	300,00	1,317	72,727	-31,5055
774,21	300,00	1,315	72,636	-39,6723
778,96	300,00	1,313	72,517	15,9371
783,71	300,00	1,312	72,422	13,1344
788,46	300,00	1,310	72,322	-10,9618
793,21	300,00	1,308	72,213	-5,33674
797,96	300,00	1,306	72,133	20,4136
802,71	300,00	1,304	72,032	15,1788
807,46	300,00	1,303	71,923	-1,29429
812,21	300,00	1,300	71,802	-10,0229
816,96	300,00	1,299	71,736	16,3942
821,71	300,00	1,297	71,619	40,1523
826,46	300,00	1,295	71,513	25,2053
831,21	300,00	1,294	71,429	-20,8907
835,96	300,00	1,292	71,329	-41,7846
840,71	300,00	1,290	71,224	-6,40379
845,46	300,00	1,288	71,111	15,2299
850,21	300,00	1,286	71,030	37,8692
854,96	300,00	1,285	70,942	-17,4644
859,71	300,00	1,283	70,825	-18,7592
864,46	300,00	1,281	70,741	-34,6441
869,21	300,00	1,279	70,639	-25,7696
873,96	300,00	1,278	70,552	33,2920
878,71	300,00	1,276	70,449	-41,2358
883,46	300,00	1,275	70,383	-18,1542
888,21	300,00	1,273	70,318	29,5610
892,96	300,00	1,272	70,224	22,8420
897,71	300,00	1,270	70,152	-25,2236
902,46	300,00	1,269	70,055	0,727278
907,21	300,00	1,268	69,999	30,9471
911,96	300,00	1,267	69,951	-23,8389
916,71	300,00	1,265	69,833	-4,09219
921,46	300,00	1,264	69,789	35,9578
926,21	300,00	1,262	69,702	-4,19475
930,96	300,00	1,261	69,630	-6,27406
935,71	300,00	1,260	69,549	-2,73064
940,46	300,00	1,259	69,515	11,1856
945,21	300,00	1,257	69,397	-14,7449
949,96	300,00	1,255	69,319	11,5667
954,71	300,00	1,254	69,240	9,45715
959,46	300,00	1,253	69,200	-31,7228
964,21	300,00	1,251	69,072	-6,18610
968,96	300,00	1,249	68,980	38,3469
973,71	300,00	1,248	68,896	31,6796
978,46	300,00	1,246	68,811	-21,0294
983,21	300,00	1,245	68,735	-9,53546
987,96	300,00	1,243	68,631	16,5692
992,71	300,00	1,242	68,556	24,2265
997,46	300,00	1,240	68,466	7,33059
1002,21	300,00	1,238	68,370	13,1995
1006,96	300,00	1,237	68,300	-32,3128
1011,71	300,00	1,235	68,197	4,04154
1016,46	300,00	1,234	68,112	-35,1767
1021,21	300,00	1,232	68,015	8,82066
1025,96	300,00	1,230	67,910	34,3002
1030,71	300,00	1,229	67,840	1,73515
1035,46	300,00	1,226	67,712	-31,5085
1040,21	300,00	1,225	67,632	21,5954
1044,96	300,00	1,223	67,556	46,4937
1049,71	300,00	1,221	67,422	31,7837
1054,46	300,00	1,220	67,352	47,5256
1059,21	300,00	1,218	67,257	-21,0688
1063,96	300,00	1,216	67,133	-49,9351
1068,71	300,00	1,214	67,052	-24,0129
1073,46	300,00	1,212	66,946	-3,28860
1078,21	300,00	1,211	66,861	12,0725
1082,96	300,00	1,208	66,730	37,7026
1087,71	300,00	1,207	66,643	44,3445
1092,46	300,00	1,205	66,551	-48,4731
1097,21	300,00	1,203	66,433	-12,2628
1101,96	300,00	1,202	66,368	39,9238
1106,71	300,00	1,200	66,258	11,5545
1111,46	300,00	1,198	66,178	-32,4126
1116,21	300,00	1,197	66,071	-24,4745
1120,96	300,00	1,194	65,915	64,8387
1125,71	300,00	1,193	65,869	35,4730
1130,46	300,00	1,191	65,788	-39,2931
1135,21	300,00	1,189	65,679	-59,5180
1139,96	300,00	1,188	65,579	11,5137
1144,71	300,00	1,186	65,477	-12,5093
1149,46	300,00	1,184	65,372	30,7111
1154,21	300,00	1,182	65,293	0,374851
1158,96	300,00	1,180	65,172	-11,2574
1163,71	300,00	1,178	65,071	34,2996
1168,46	300,00	1,177	64,978	0,306759
1173,21	300,00	1,175	64,865	-23,6924
1177,96	300,00	1,173	64,796	-23,2016
1182,71	300,00	1,171	64,683	-9,82338
1187,46	300,00	1,169	64,577	-17,5693
1192,21	300,00	1,168	64,493	8,72206
1196,96	300,00	1,166	64,406	23,0150
1201,71	300,00	1,165	64,335	31,6092
1206,46	300,00	1,164	64,263	22,3120
1211,21	300,00	1,162	64,180	-37,9816
1215,96	300,00	1,161	64,093	-28,9252
1220,71	300,00	1,159	64,005	0,650700
1225,46	300,00	1,158	63,919	-14,8262
1230,21	300,00	1,156	63,833	-18,1953
1234,96	300,00	1,154	63,728	10,0924
1239,71	300,00	1,153	63,678	23,0726
1244,46	300,00	1,152	63,586	-0,885129
1249,21	300,00	1,150	63,527	34,9441
1253,96	300,00	1,149	63,451	23,4739
1258,71	300,00	1,148	63,368	-0,0114307
1263,46	300,00	1,146	63,289	-0,0112926
1268,21	320,55	1,145	63,232	-0,0754716
1272,96	366,76	1,112	61,401	-0,360549
1277,71	414,95	0,671	37,056	-0,539865
1282,46	462,56	-0,029	-1,621	-0,384084
1287,21	510,23	-0,032	-1,791	-0,0508527
1291,96	557,85	-0,033	-1,821	-5,77091e-4
1296,71	605,45	-0,034	-1,885	-1,61209e-4
1301,46	653,04	-0,034	-1,852	4,36162e-4
1306,21	700,62	-0,034	-1,863	1,20866e-3
1310,96	748,19	-0,031	-1,724	1,71610e-3
1314,79	786,57	-0,029	-1,628	2,10149e-3