File: data/TGA/005d-L_M/M2_000001 -temp_104 AMU_XIC
Time	Ion Current
min	mA
0.00	1.00000e-13
4.53	1.00000e-13
9.05	1.00000e-13
13.58	1.00000e-13
18.11	1.00000e-13
22.63	1.00000e-13
27.15	1.00000e-13
31.68	1.00000e-13
36.21	1.00000e-13
40.74	1.00000e-13
45.26	1.00000e-13
49.79	1.00000e-13
54.31	1.00000e-13
58.84	1.00000e-13
63.37	1.00000e-13
67.89	1.00000e-13
72.42	1.00000e-13
76.94	1.00000e-13
81.47	1.00000e-13
86.00	1.73780e-5
90.52	1.00000e-13
95.05	1.00000e-13
99.58	1.00000e-13
104.10	1.00000e-13
108.63	7.87804e-6
113.15	1.00000e-13
117.68	1.22805e-5
122.21	1.32073e-5
126.73	1.00000e-13
131.26	1.00000e-13
135.79	1.00000e-13
140.31	1.00000e-13
144.84	1.00000e-13
149.36	1.00000e-13
153.89	1.00000e-13
158.42	1.00000e-13
162.94	1.00000e-13
167.47	1.72622e-5
172.00	1.00000e-13
176.52	1.00000e-13
181.05	1.00000e-13
185.57	1.00000e-13
190.10	1.00000e-13
194.63	1.00000e-13
199.16	1.00000e-13
203.68	1.00000e-13
208.20	1.00000e-13
212.73	1.00000e-13
217.26	1.00000e-13
221.78	1.00000e-13
226.31	1.00000e-13
230.84	1.00000e-13
235.36	1.00000e-13
239.89	1.00000e-13
244.42	1.00000e-13
248.94	1.00000e-13
253.47	1.00000e-13
257.99	1.00000e-13
262.52	1.00000e-13
267.05	1.00000e-13
271.57	1.00000e-13
276.10	1.00000e-13
280.63	1.00000e-13
285.15	1.00000e-13
289.68	1.00000e-13
294.20	1.00000e-13
298.73	1.00000e-13
303.26	1.00000e-13
307.78	1.00000e-13
312.31	1.00000e-13
316.83	1.00000e-13
321.36	1.00000e-13
325.89	1.00000e-13
330.41	1.00000e-13
334.94	1.00000e-13
339.46	1.00000e-13
343.99	1.00000e-13
348.52	1.00000e-13
353.05	1.00000e-13
357.57	1.00000e-13
362.10	1.00000e-13
366.62	1.00000e-13
371.15	1.00000e-13
375.68	1.00000e-13
380.21	9.26828e-7
384.73	1.00000e-13
389.25	1.00000e-13
393.78	1.00000e-13
398.31	1.00000e-13
402.83	1.00000e-13
407.36	1.00000e-13
411.88	1.00000e-13
416.41	1.00000e-13
420.94	1.00000e-13
425.46	1.00000e-13
429.99	4.17073e-6
434.51	1.04268e-6
439.04	1.00000e-13
443.57	1.00000e-13
448.10	1.00000e-13
452.62	1.00000e-13
457.15	1.15853e-5
461.67	1.00000e-13
466.20	1.00000e-13
470.72	1.00000e-13
475.25	1.00000e-13
479.78	1.00000e-13
484.30	1.00000e-13
488.83	1.00000e-13
493.36	1.00000e-13
497.88	1.00000e-13
502.41	1.00000e-13
506.93	1.00000e-13
511.46	1.00000e-13
515.99	1.00000e-13
520.51	1.00000e-13
525.04	1.00000e-13
529.57	1.00000e-13
534.09	1.00000e-13
538.62	1.00000e-13
543.15	1.00000e-13
547.67	1.00000e-13
552.20	1.00000e-13
556.73	1.00000e-13
561.25	1.00000e-13
565.78	1.00000e-13
570.30	4.63414e-7
574.83	1.00000e-13
579.35	1.00000e-13
583.88	1.00000e-13
588.41	1.00000e-13
592.93	1.00000e-13
597.46	1.00000e-13
601.98	1.00000e-13
606.51	1.29756e-5
611.04	1.00000e-13
615.56	1.00000e-13
620.09	1.00000e-13
624.62	1.00000e-13
629.14	1.00000e-13
633.67	1.00000e-13
638.20	1.00000e-13
642.73	1.00000e-13
647.25	1.00000e-13
651.77	1.00000e-13
656.30	1.00000e-13
660.83	1.00000e-13
665.35	1.00000e-13
669.88	1.00000e-13
674.41	1.00000e-13
678.93	1.00000e-13
683.46	1.00000e-13
687.98	1.00000e-13
692.51	1.00000e-13
697.04	1.00000e-13
701.56	1.00000e-13
706.09	1.00000e-13
710.61	1.00000e-13
715.14	1.00000e-13
719.67	1.00000e-13
724.20	1.00000e-13
728.72	1.00000e-13
733.25	1.00000e-13
737.77	1.00000e-13
742.30	1.00000e-13
746.83	1.00000e-13
751.35	2.65304e-5
755.88	1.34390e-5
760.40	1.00000e-13
764.93	1.00000e-13
769.46	1.00000e-13
773.98	1.00000e-13
778.51	1.00000e-13
783.03	1.00000e-13
787.56	1.00000e-13
792.09	1.00000e-13
796.61	1.85366e-6
801.14	1.00000e-13
805.67	1.00000e-13
810.20	1.00000e-13
814.72	1.00000e-13
819.25	1.00000e-13
823.77	1.00000e-13
828.29	1.00000e-13
832.82	1.00000e-13
837.35	1.00000e-13
841.88	1.00000e-13
846.40	1.00000e-13
850.93	1.00000e-13
855.46	1.00000e-13
859.98	1.00000e-13
864.51	1.00000e-13
869.03	1.00000e-13
873.56	1.00000e-13
878.09	1.00000e-13
882.61	1.00000e-13
887.14	1.00000e-13
891.66	1.00000e-13
896.19	1.00000e-13
900.72	1.00000e-13
905.25	1.00000e-13
909.77	1.00000e-13
914.30	1.00000e-13
918.82	1.00000e-13
923.35	1.00000e-13
927.88	1.00000e-13
932.40	1.00000e-13
936.93	1.00000e-13
941.45	1.00000e-13
945.98	1.00000e-13
950.51	1.00000e-13
955.03	1.00000e-13
959.56	1.00000e-13
964.08	1.00000e-13
968.61	1.00000e-13
973.14	1.00000e-13
977.66	1.00000e-13
982.19	1.00000e-13
986.72	1.00000e-13
991.25	1.00000e-13
995.77	1.00000e-13
1000.30	1.00000e-13
1004.82	1.00000e-13
1009.35	1.00000e-13
1013.87	1.00000e-13
1018.40	1.00000e-13
1022.92	1.00000e-13
1027.45	1.00000e-13
1031.98	1.00000e-13
1036.50	7.64633e-6
1041.03	1.00000e-13
1045.56	1.00000e-13
1050.08	1.00000e-13
1054.61	1.00000e-13
1059.13	1.00000e-13
1063.66	1.00000e-13
1068.19	1.00000e-13
1072.71	1.00000e-13
1077.24	1.00000e-13
1081.77	1.00000e-13
1086.30	1.00000e-13
1090.83	1.00000e-13
1095.36	1.00000e-13
1099.87	1.00000e-13
1104.40	1.00000e-13
1108.93	1.00000e-13
1113.45	1.00000e-13
1117.98	1.00000e-13
1122.50	1.00000e-13
1127.03	1.00000e-13
1131.55	1.00000e-13
1136.08	1.00000e-13
1140.61	1.00000e-13
1145.14	1.00000e-13
1149.66	1.00000e-13
1154.19	1.00000e-13
1158.71	1.00000e-13
1163.24	1.00000e-13
1167.77	1.00000e-13
1172.30	1.00000e-13
1176.82	1.00000e-13
1181.34	1.00000e-13
1185.88	1.00000e-13
1190.40	1.00000e-13
1194.92	1.00000e-13
1199.45	1.00000e-13
1203.98	1.00000e-13
1208.50	1.00000e-13
1213.03	1.00000e-13
1217.55	1.00000e-13
1222.08	1.00000e-13
1226.61	1.00000e-13
1231.14	1.00000e-13
1235.66	1.00000e-13
1240.19	1.00000e-13
1244.71	1.00000e-13
1249.24	1.00000e-13
1253.77	1.00000e-13
1258.30	1.00000e-13
1262.82	1.00000e-13
1267.35	1.00000e-13
1271.88	1.08902e-5
1276.39	2.04018e-3
1280.92	9.54745e-3
1285.45	3.68414e-4
1289.97	1.99268e-5
1294.50	1.00000e-13
1299.03	1.00000e-13
1303.55	1.00000e-13
1308.08	1.00000e-13
1312.61	1.00000e-13
1314.54	1.00000e-13