File: data/TGA/005d-L_M/styrofoam_000001 -temp_104 AMU_XIC
Time	Ion Current
min	mA
0.00	5.08597e-5
4.53	3.05853e-5
9.05	2.67622e-5
13.58	3.68414e-5
18.11	4.64572e-5
22.63	1.00000e-13
27.16	4.39085e-5
31.68	2.23597e-5
36.21	9.73169e-6
40.74	1.00000e-13
45.27	8.22560e-6
49.79	2.32865e-5
54.32	6.14023e-6
58.85	1.00000e-13
63.37	1.62195e-6
67.90	1.00000e-13
72.43	1.00000e-13
76.95	7.53048e-6
81.48	1.00000e-13
86.01	1.00000e-13
90.53	1.00000e-13
95.06	1.00000e-13
99.59	1.00000e-13
104.11	1.00000e-13
108.64	4.28658e-6
113.16	1.36707e-5
117.69	5.67682e-5
122.22	1.00000e-13
126.74	2.40975e-5
131.27	1.00000e-13
135.79	1.00000e-13
140.32	1.00000e-13
144.85	1.00000e-13
149.37	1.00000e-13
153.90	1.00000e-13
158.43	1.11219e-5
162.95	1.00793e-5
167.48	8.10974e-6
172.01	1.00000e-13
176.53	1.00000e-13
181.06	1.00000e-13
185.59	1.00000e-13
190.11	1.00000e-13
194.64	1.00000e-13
199.17	1.67988e-5
203.69	1.00000e-13
208.22	1.00000e-13
212.75	1.00000e-13
217.27	1.00000e-13
221.80	1.00000e-13
226.33	1.00000e-13
230.85	1.00000e-13
235.38	1.26280e-5
239.90	1.00000e-13
244.43	1.00000e-13
248.96	1.00000e-13
253.49	1.00000e-13
258.01	1.00000e-13
262.54	7.76218e-6
267.06	1.00000e-13
271.59	1.00000e-13
276.12	5.21341e-6
280.65	1.00000e-13
285.17	1.00000e-13
289.70	1.00000e-13
294.22	1.00000e-13
298.75	2.08536e-6
303.28	1.00000e-13
307.80	1.00000e-13
312.33	4.51829e-6
316.85	1.00000e-13
321.38	4.98170e-6
325.91	1.00000e-13
330.44	1.00000e-13
334.96	1.00000e-13
339.49	1.00000e-13
344.01	1.00000e-13
348.54	1.00000e-13
353.07	1.00000e-13
357.59	1.00000e-13
362.12	4.40243e-6
366.65	1.00000e-13
371.18	1.00000e-13
375.70	1.00000e-13
380.23	1.00000e-13
384.75	1.00000e-13
389.28	3.12804e-6
393.81	1.00000e-13
398.33	1.00000e-13
402.86	1.63353e-5
407.39	1.00000e-13
411.91	1.00000e-13
416.44	2.53719e-5
420.97	1.15853e-7
425.49	1.00000e-13
430.02	1.00000e-13
434.55	2.89634e-6
439.07	1.00000e-13
443.60	1.00000e-13
448.13	8.22560e-6
452.65	1.00000e-13
457.18	1.00000e-13
461.71	1.00000e-13
466.23	1.00000e-13
470.76	5.44511e-6
475.29	1.00000e-13
479.81	1.00000e-13
484.34	1.00000e-13
488.86	1.00000e-13
493.39	1.00000e-13
497.92	2.43292e-6
502.44	1.00000e-13
506.97	1.00000e-13
511.49	1.00000e-13
516.02	1.00000e-13
520.55	1.00000e-13
525.08	1.00000e-13
529.60	1.00000e-13
534.13	1.00000e-13
538.65	1.00000e-13
543.18	1.03110e-5
547.71	1.00000e-13
552.24	1.00000e-13
556.76	4.74999e-6
561.29	1.00000e-13
565.82	1.00000e-13
570.34	1.00000e-13
574.87	1.00000e-13
579.39	1.00000e-13
583.92	1.00000e-13
588.45	1.05427e-5
592.97	1.00000e-13
597.50	1.00000e-13
602.03	1.00000e-13
606.55	1.00000e-13
611.08	1.00000e-13
615.60	1.00000e-13
620.13	1.00000e-13
624.66	1.00000e-13
629.18	1.00000e-13
633.71	1.45975e-5
638.24	1.00000e-13
642.76	1.00000e-13
647.29	1.00000e-13
651.82	1.00000e-13
656.34	1.00000e-13
660.87	1.00000e-13
665.40	1.00000e-13
669.92	1.00000e-13
674.45	1.34390e-5
678.98	1.00000e-13
683.50	1.00000e-13
688.03	1.00000e-13
692.56	1.00000e-13
697.08	4.51829e-6
701.61	1.26280e-5
706.14	1.00000e-13
710.66	1.00000e-13
715.19	1.00000e-13
719.72	1.00000e-13
724.24	1.00000e-13
728.77	1.00000e-13
733.30	1.00000e-13
737.82	1.00000e-13
742.35	1.00000e-13
746.88	6.95121e-7
751.40	1.00000e-13
755.93	3.35975e-6
760.45	2.94268e-5
764.98	1.00000e-13
769.51	1.00000e-13
774.03	1.00000e-13
778.56	1.00000e-13
783.09	1.00000e-13
787.61	1.00000e-13
792.14	1.00000e-13
796.66	1.06585e-5
801.19	1.00000e-13
805.72	4.86585e-6
810.25	1.00000e-13
814.77	1.00000e-13
819.30	4.17073e-6
823.82	1.00000e-13
828.35	1.00000e-13
832.88	4.40243e-6
837.40	1.00000e-13
841.93	1.00000e-13
846.46	1.00000e-13
850.98	1.00000e-13
855.51	1.00000e-13
860.04	1.00000e-13
864.56	1.00000e-13
869.09	1.00000e-13
873.62	1.00000e-13
878.14	1.00000e-13
882.67	1.00000e-13
887.20	1.00000e-13
891.72	1.00000e-13
896.25	1.00000e-13
900.77	1.00000e-13
905.30	1.00000e-13
909.83	6.37194e-6
914.35	1.00000e-13
918.88	1.00000e-13
923.41	1.00000e-13
927.93	1.00000e-13
932.46	1.00000e-13
936.99	1.00000e-13
941.51	1.00000e-13
946.04	1.00000e-13
950.56	1.00000e-13
955.09	1.00000e-13
959.62	1.00000e-13
964.14	1.00000e-13
968.67	1.00000e-13
973.20	1.00000e-13
977.72	1.00000e-13
982.25	1.00000e-13
986.78	1.00000e-13
991.30	1.00000e-13
995.83	1.00000e-13
1000.36	1.00000e-13
1004.88	1.00000e-13
1009.41	1.00000e-13
1013.94	1.00000e-13
1018.46	1.00000e-13
1022.99	1.00000e-13
1027.51	1.00000e-13
1032.04	1.00000e-13
1036.57	1.04268e-5
1041.09	1.00000e-13
1045.62	1.00000e-13
1050.15	1.00000e-13
1054.68	1.00000e-13
1059.20	1.00000e-13
1063.73	1.55244e-5
1068.25	1.00000e-13
1072.78	1.00000e-13
1077.31	1.00000e-13
1081.83	1.00000e-13
1086.36	1.00000e-13
1090.89	1.00000e-13
1095.41	1.00000e-13
1099.94	1.00000e-13
1104.47	1.00000e-13
1108.99	1.00000e-13
1113.52	1.00000e-13
1118.05	1.00000e-13
1122.57	1.00000e-13
1127.10	1.00000e-13
1131.62	1.00000e-13
1136.15	1.00000e-13
1140.68	1.00000e-13
1145.20	1.00000e-13
1149.73	5.56097e-6
1154.26	1.00000e-13
1158.79	1.00000e-13
1163.31	1.00000e-13
1167.84	1.00000e-13
1172.36	1.00000e-13
1176.89	1.00000e-13
1181.42	8.10974e-7
1185.94	1.00000e-13
1190.47	1.00000e-13
1195.00	1.00000e-13
1199.53	1.00000e-13
1204.05	1.00000e-13
1208.58	1.00000e-13
1213.10	1.00000e-13
1217.63	1.00000e-13
1222.16	1.00000e-13
1226.68	1.00000e-13
1231.21	1.00000e-13
1235.73	1.00000e-13
1240.26	1.00000e-13
1244.79	1.00000e-13
1249.32	1.00000e-13
1253.84	1.00000e-13
1258.37	1.00000e-13
1262.89	1.00000e-13
1267.42	1.00000e-13
1271.95	1.00000e-13
1276.47	5.81584e-5
1281.00	3.96740e-3
1285.53	5.65400e-3
1290.05	3.97713e-3
1294.58	2.91140e-3
1299.11	2.31973e-3
1303.63	2.07100e-3
1308.16	1.55267e-3
1312.68	1.38549e-3
1313.98	1.47875e-3