File: data/TGA/ps_scf3_flynn_ozawa_wall/ExpDat_2025_11_18_SL_PS_Tosoh_F1_1K_min.csv
#EXPORTTYPE:                 ,DATA ALL
#FILE:                       ,2025_11_18_SL_PS_Tosoh_F1_1K_min.ngb-ss5
#FORMAT:                     ,NETZSCH5
#FTYPE:                      ,ASCII
#IDENTITY:                   ,PS_Tosoh_F1
#DECIMAL:                    ,POINT
#SEPARATOR:                  ,COMMA
#MTYPE:                      ,DSC
#INSTRUMENT:                 ,NETZSCH STA 449F5
#PROJECT:                    ,
#DATE/TIME:                  ,11/19/2025 11:22:13 AM (UTC-5)
#CORR. FILE:                 ,
#TEMPCAL:                    ,05-05-2025 14:38
#SENSITIVITY:                ,28-06-2023 13:53
#LABORATORY:                 ,Tran
#OPERATOR:                   ,Stan
#REMARK:                     ,
#SAMPLE:                     ,PS_Tosoh_F1
#SAMPLE MASS /mg:            ,4.5
#MATERIAL:                   ,
#REFERENCE:                  ,
#REFERENCE MASS /mg:         ,0
#TYPE OF CRUCIBLE:           ,Al2O3 85 ‘l, open
#SAMPLE CRUCIBLE MASS /mg:   ,0
#REFERENCE CRUCIBLE MASS /mg:,0
#DSC RANGE /‘V:              ,5000
#TG RANGE /mg:               ,35000
#TAU-R:                      ,---
#CORR. CODE:                 ,000
#EXO:                        ,-1
#RANGE:                      ,20›C....800›C/0.0....20.0K/min
#SEGMENT:                    ,S1-5/5
#SEG. 1:                     ,20›C/5.0(K/min)/100›C
#SEG. 2:                     ,100›C/00:05/100›C
#SEG. 3:                     ,100›C/10.0(K/min)/200›C
#SEG. 4:                     ,200›C/1.0(K/min)/600›C
#SEG. 5:                     ,600›C/20.0(K/min)/800›C

##Temp./›C,Time/min,DSC/(mW/mg),Mass/%,Gas Flow(purge2)/(ml/min),Gas Flow(protective)/(ml/min),TIC(scan:1)/A,Sensit./(uV/mW),Segment
 28.85300,  0.00000,      0.83381,    100,50.00000,62.00000,            ,0.92334,1
 47.26100,  7.60000,      0.97079,     89.80044,50.00000,60.00000,3.333996e-09,0.92429,1
 92.04600, 15.20000,      1.73509,     91.54022,50.00000,60.00000,3.346587e-09,0.92519,1
107.776, 20.96333,      0.13856,     88.46800,50.00000,60.00000,3.356543e-09,0.92602,3
109.219, 22.10333,      0.59048,     89.38556,50.00000,60.00000,3.347920e-09,0.92612,3
114.945, 23.24333,      1.66709,     90.77578,50.00000,60.00000,3.347700e-09,0.92618,3
122.621, 24.38333,      2.29301,     91.69089,50.00000,60.00000,3.353332e-09,0.92620,3
132.635, 25.52333,      3.05117,     92.71667,50.00000,61.00000,3.351306e-09,0.92618,3
144.475, 26.66333,      3.66622,     93.41822,50.00000,61.00000,3.360642e-09,0.92611,3
157.258, 27.80333,      4.08882,     93.88333,50.00000,61.00000,3.362365e-09,0.92599,3
170.474, 28.94333,      4.36731,     94.19511,50.00000,61.00000,3.355357e-09,0.92581,3
183.751, 30.08333,      4.48859,     94.40111,50.00000,61.00000,3.353972e-09,0.92559,3
203.595, 32.09333,      3.19239,     93.52378,50.00000,61.00000,3.359251e-09,0.92508,4
213.239, 36.65333,      0.40434,     91.64578,50.00000,61.00000,3.354193e-09,0.92336,4
213.26, 41.21333,      0.25520,     90.94422,50.00000,61.00000,3.353416e-09,0.92129,4
215.281, 45.77333,      0.45887,     90.66778,50.00000,61.00000,3.358628e-09,0.91996,4
219.086, 50.33333,      0.56664,     90.48422,50.00000,61.00000,3.358395e-09,0.91923,4
223.499, 54.89333,      0.59493,     90.31067,50.00000,61.00000,3.369061e-09,0.91895,4
228.093, 59.45333,      0.60067,     90.19267,50.00000,61.00000,3.360442e-09,0.91894,4
232.646, 64.01333,      0.60146,     90.10200,50.00000,61.00000,3.367861e-09,0.91892,4
237.219, 68.57333,      0.60171,     90.04178,50.00000,61.00000,3.359078e-09,0.91883,4
241.776, 73.13333,      0.60159,     90.03178,50.00000,60.00000,3.358277e-09,0.91864,4
246.336, 77.69333,      0.60251,     90.06178,50.00000,60.00000,3.353979e-09,0.91836,4
250.908, 82.25333,      0.60329,     90.09200,50.00000,60.00000,3.356851e-09,0.91799,4
255.454, 86.81333,      0.60285,     90.15733,50.00000,59.00000,3.355060e-09,0.91754,4
260.019, 91.37333,      0.60246,     90.20511,50.00000,59.00000,3.347977e-09,0.91706,4
264.576, 95.93333,      0.60768,     90.23533,50.00000,59.00000,3.347036e-09,0.91652,4
269.118,100.493,      0.61421,     90.24289,50.00000,58.00000,3.351117e-09,0.91593,4
273.685,105.053,      0.61981,     90.21267,50.00000,58.00000,3.352218e-09,0.91531,4
278.237,109.613,      0.63556,     90.14222,50.00000,58.00000,3.346116e-09,0.91461,4
282.803,114.173,      0.64834,     90.07200,50.00000,58.00000,3.349879e-09,0.91386,4
287.351,118.733,      0.66382,     89.95133,50.00000,58.00000,3.346622e-09,0.91300,4
291.913,123.293,      0.68631,     89.76511,50.00000,58.00000,3.347882e-09,0.91209,4
296.478,127.853,      0.70628,     89.56156,50.00000,58.00000,3.341703e-09,0.91105,4
301.035,132.413,      0.72928,     89.20956,50.00000,58.00000,3.349099e-09,0.90998,4
305.595,136.973,      0.74930,     88.80978,50.00000,58.00000,3.343187e-09,0.90878,4
310.152,141.533,      0.77370,     88.23911,50.00000,59.00000,3.334546e-09,0.90751,4
314.737,146.093,      0.79754,     87.44711,50.00000,61.00000,3.343649e-09,0.90621,4
319.286,150.653,      0.83242,     86.62267,50.00000,62.00000,3.334881e-09,0.90478,4
323.854,155.213,      0.86086,     85.66733,50.00000,62.00000,3.338561e-09,0.90334,4
328.411,159.773,      0.87714,     84.50067,50.00000,62.00000,3.337777e-09,0.90178,4
332.984,164.333,      0.90955,     83.09289,50.00000,63.00000,3.346657e-09,0.90016,4
337.535,168.893,      0.94096,     81.33556,50.00000,63.00000,3.349287e-09,0.89853,4
342.1,173.453,      0.98320,     79.18600,50.00000,63.00000,3.344953e-09,0.89678,4
346.656,178.013,      1.02204,     76.55111,50.00000,63.00000,3.347230e-09,0.89503,4
351.207,182.573,      1.05949,     73.06422,50.00000,64.00000,3.354845e-09,0.89317,4
355.774,187.133,      1.12004,     68.76511,50.00000,64.00000,3.350664e-09,0.89127,4
360.338,191.693,      1.14576,     63.32711,50.00000,64.00000,3.362706e-09,0.88939,4
364.91,196.253,      1.17810,     56.71244,50.00000,64.00000,3.363872e-09,0.88738,4
369.445,200.813,      1.21500,     48.47889,50.00000,64.00000,3.365683e-09,0.88534,4
374.025,205.373,      1.14219,     38.88756,50.00000,64.00000,3.364910e-09,0.88333,4
378.6,209.933,      1.02922,     28.46422,50.00000,64.00000,3.369679e-09,0.88120,4
383.156,214.493,      0.84661,     17.98800,50.00000,65.00000,3.368320e-09,0.87915,4
387.7,219.053,      0.56711,      8.76133,50.00000,65.00000,3.363630e-09,0.87697,4
392.272,223.613,      0.21612,      1.48556,50.00000,65.00000,3.373168e-09,0.87202,4
396.823,228.173,     -0.15138,     -3.89467,50.00000,65.00000,3.369594e-09,0.86728,4
401.39,232.733,     -0.35808,     -7.26089,50.00000,65.00000,3.364187e-09,0.86438,4
405.934,237.293,     -0.50216,     -9.14156,50.00000,65.00000,3.365300e-09,0.86257,4
410.505,241.853,     -0.59438,    -10.03156,50.00000,65.00000,3.376889e-09,0.86187,4
415.066,246.413,     -0.67373,    -10.52667,50.00000,65.00000,3.368997e-09,0.86164,4
419.625,250.973,     -0.73819,    -10.62978,50.00000,65.00000,3.373724e-09,0.86164,4
424.182,255.533,     -0.79103,    -10.55933,50.00000,65.00000,3.374182e-09,0.86172,4
428.728,260.093,     -0.85262,    -10.55933,50.00000,65.00000,3.371905e-09,0.86173,4
433.299,264.653,     -0.90984,    -10.47644,50.00000,65.00000,3.371345e-09,0.86164,4
437.871,269.213,     -0.96979,    -10.44622,50.00000,65.00000,3.371597e-09,0.86144,4
442.421,273.773,     -1.02988,    -10.37844,50.00000,65.00000,3.375835e-09,0.86110,4
446.988,278.333,     -1.09017,    -10.31044,50.00000,65.00000,3.373114e-09,0.86064,4
451.543,282.893,     -1.14798,    -10.28533,50.00000,65.00000,3.375745e-09,0.86012,4
456.097,287.453,     -1.21383,    -10.23267,50.00000,65.00000,3.373673e-09,0.85948,4
460.665,292.013,     -1.27725,    -10.19244,50.00000,65.00000,3.380692e-09,0.85881,4
465.222,296.573,     -1.33869,    -10.09689,50.00000,65.00000,3.376238e-09,0.85807,4
469.774,301.133,     -1.40187,    -10.01133,50.00000,65.00000,3.376248e-09,0.85729,4
474.335,305.693,     -1.46900,    -10.04911,50.00000,65.00000,3.385047e-09,0.85649,4
478.906,310.253,     -1.52952,    -10.00378,50.00000,65.00000,3.384474e-09,0.85566,4
483.461,314.813,     -1.59175,     -9.94844,50.00000,65.00000,3.385375e-09,0.85480,4
488.021,319.373,     -1.65574,     -9.93333,50.00000,65.00000,3.378869e-09,0.85398,4
492.587,323.933,     -1.71735,     -9.85289,50.00000,65.00000,3.379212e-09,0.85310,4
497.155,328.493,     -1.76790,     -9.82289,50.00000,65.00000,3.383890e-09,0.85221,4
501.717,333.053,     -1.82144,     -9.82022,50.00000,65.00000,3.384097e-09,0.85134,4
506.262,337.613,     -1.86474,     -9.79511,50.00000,65.00000,3.382840e-09,0.85044,4
510.82,342.173,     -1.90789,     -9.71711,50.00000,65.00000,3.384063e-09,0.84958,4
515.391,346.733,     -1.94061,     -9.73489,50.00000,64.00000,3.382293e-09,0.84869,4
519.949,351.293,     -1.96896,     -9.69711,50.00000,64.00000,3.385912e-09,0.84779,4
524.514,355.853,     -1.99522,     -9.63933,50.00000,64.00000,3.379801e-09,0.84691,4
529.083,360.413,     -2.01352,     -9.63933,50.00000,64.00000,3.379377e-09,0.84601,4
533.63,364.973,     -2.03243,     -9.58156,50.00000,64.00000,3.387210e-09,0.84513,4
538.208,369.533,     -2.04679,     -9.51111,50.00000,64.00000,3.374692e-09,0.84421,4
542.766,374.093,     -2.06141,     -9.53622,50.00000,64.00000,3.373522e-09,0.84330,4
547.323,378.653,     -2.07842,     -9.49600,50.00000,64.00000,3.373252e-09,0.84240,4
551.895,383.213,     -2.09074,     -9.45578,50.00000,64.00000,3.379689e-09,0.84148,4
556.449,387.773,     -2.11110,     -9.44067,50.00000,64.00000,3.374474e-09,0.84059,4
560.998,392.333,     -2.13513,     -9.38289,50.00000,64.00000,3.371883e-09,0.83967,4
565.586,396.893,     -2.15877,     -9.42067,50.00000,64.00000,3.373807e-09,0.83873,4
570.154,401.453,     -2.19281,     -9.34000,50.00000,64.00000,3.376635e-09,0.83783,4
574.692,406.013,     -2.22729,     -9.39289,50.00000,64.00000,3.377467e-09,0.83689,4
579.268,410.573,     -2.26053,     -9.34267,50.00000,64.00000,3.368841e-09,0.83598,4
583.831,415.133,     -2.30291,     -9.35022,50.00000,64.00000,3.369924e-09,0.83503,4
588.404,419.693,     -2.34714,     -9.34000,50.00000,64.00000,3.364813e-09,0.83409,4
592.95,424.253,     -2.39784,     -9.31756,50.00000,64.00000,3.361776e-09,0.83318,4
597.503,428.813,     -2.44892,     -9.30489,50.00000,64.00000,3.357146e-09,0.83222,4
600.789,431.25,     -1.88827,     -9.26467,50.00000,64.00000,3.362964e-09,0.83171,5
611.2,431.82,      2.05196,     -8.79711,50.00000,64.00000,3.363454e-09,0.83161,5
622.67,432.39,      1.63548,     -8.70667,50.00000,64.00000,3.365902e-09,0.83147,5
632.041,432.96,      0.87630,     -8.66889,50.00000,64.00000,3.360578e-09,0.83137,5
642.547,433.53,      1.19157,     -8.54067,50.00000,64.00000,3.364537e-09,0.83124,5
653.76,434.1,      1.13974,     -8.45022,50.00000,64.00000,3.373132e-09,0.83113,5
665.051,434.67,      0.91321,     -8.32933,50.00000,64.00000,3.371565e-09,0.83099,5
676.552,435.24,      0.69103,     -8.26911,50.00000,64.00000,3.374042e-09,0.83089,5
688.166,435.81,      0.41446,     -8.14844,50.00000,64.00000,3.370159e-09,0.83075,5
699.85,436.38, 8.359140e-02,     -8.05800,50.00000,64.00000,3.362307e-09,0.83065,5
711.558,436.95,     -0.27778,     -7.98244,50.00000,64.00000,3.360251e-09,0.83055,5
723.287,437.52,     -0.66579,     -7.90711,50.00000,64.00000,3.365381e-09,0.83040,5
735.003,438.09,     -1.08569,     -7.82422,50.00000,64.00000,3.360323e-09,0.83030,5
746.699,438.66,     -1.51465,     -7.75378,50.00000,64.00000,3.361596e-09,0.83017,5
758.379,439.23,     -1.93072,     -7.69333,50.00000,64.00000,3.367757e-09,0.83007,5
770.04,439.8,     -2.36861,     -7.61800,50.00000,64.00000,3.367386e-09,0.82993,5
781.703,440.37,     -2.80984,     -7.54244,50.00000,64.00000,3.355173e-09,0.82983,5
793.334,440.94,     -3.25667,     -7.48222,50.00000,64.00000,            ,0.44756,5
793.555,440.95,     -3.26300,     -7.48978,50.00000,64.00000,            ,0.44747,5