File: data/TGA/ps_scf3_flynn_ozawa_wall/ExpDat_2025_11_18_SL_PS_005D-L1_1K_min.csv
#EXPORTTYPE:                 ,DATA ALL
#FILE:                       ,2025_11_18_SL_PS_005D-L1_1K_min.ngb-ss5
#FORMAT:                     ,NETZSCH5
#FTYPE:                      ,ASCII
#IDENTITY:                   ,PS-005D-L1
#DECIMAL:                    ,POINT
#SEPARATOR:                  ,COMMA
#MTYPE:                      ,DSC
#INSTRUMENT:                 ,NETZSCH STA 449F5
#PROJECT:                    ,
#DATE/TIME:                  ,11/19/2025 9:30:22 PM (UTC-5)
#CORR. FILE:                 ,
#TEMPCAL:                    ,05-05-2025 14:38
#SENSITIVITY:                ,28-06-2023 13:53
#LABORATORY:                 ,Tran
#OPERATOR:                   ,Stan
#REMARK:                     ,
#SAMPLE:                     ,PS-005D-L1
#SAMPLE MASS /mg:            ,2.98
#MATERIAL:                   ,
#REFERENCE:                  ,
#REFERENCE MASS /mg:         ,0
#TYPE OF CRUCIBLE:           ,Al2O3 85 ‘l, open
#SAMPLE CRUCIBLE MASS /mg:   ,0
#REFERENCE CRUCIBLE MASS /mg:,0
#DSC RANGE /‘V:              ,5000
#TG RANGE /mg:               ,35000
#TAU-R:                      ,---
#CORR. CODE:                 ,000
#EXO:                        ,-1
#RANGE:                      ,20›C....800›C/0.0....20.0K/min
#SEGMENT:                    ,S1-5/5
#SEG. 1:                     ,20›C/5.0(K/min)/100›C
#SEG. 2:                     ,100›C/00:05/100›C
#SEG. 3:                     ,100›C/10.0(K/min)/200›C
#SEG. 4:                     ,200›C/1.0(K/min)/600›C
#SEG. 5:                     ,600›C/20.0(K/min)/800›C

##Temp./›C,Time/min,DSC/(mW/mg),Mass/%,Gas Flow(purge2)/(ml/min),Gas Flow(protective)/(ml/min),TIC(scan:1)/A,Sensit./(uV/mW),Segment
 33.93100,  0.00000,      0.11884,100,50.00000,64.00000,            ,0.92423,1
 45.64200,  7.20000,      1.65728,102.145,50.00000,64.00000,3.333580e-09,0.92446,1
 87.13900, 14.40000,      3.29848,105.926,50.00000,64.00000,3.344751e-09,0.92512,1
107.832, 20.18333,      0.63384,102.145,50.00000,64.00000,3.347481e-09,0.92594,2
108.75, 21.86333,      0.64461,102.35,50.00000,64.00000,3.349476e-09,0.92610,3
113.387, 22.94333,      2.63410,104.784,50.00000,64.00000,3.348910e-09,0.92617,3
120.054, 24.02333,      3.84689,106.199,50.00000,64.00000,3.342344e-09,0.92620,3
128.676, 25.10333,      5.12970,107.786,50.00000,64.00000,3.348774e-09,0.92619,3
139.323, 26.18333,      6.40690,109.092,50.00000,64.00000,3.345166e-09,0.92615,3
151.09, 27.26333,      7.29592,109.981,50.00000,64.00000,3.352127e-09,0.92605,3
163.465, 28.34333,      7.94401,110.618,50.00000,64.00000,3.344647e-09,0.92590,3
176.064, 29.42333,      8.36209,111.086,50.00000,64.00000,3.352115e-09,0.92573,3
188.629, 30.50333,      8.56692,111.336,50.00000,64.00000,3.349871e-09,0.92549,3
209.201, 33.53333,      3.30870,108.8,50.00000,64.00000,3.350479e-09,0.92462,4
213.409, 37.85333,      0.47932,106.644,50.00000,64.00000,3.343809e-09,0.92282,4
213.5, 42.17333,      0.55455,106.002,50.00000,64.00000,3.350044e-09,0.92092,4
215.803, 46.49333,      0.90736,105.706,50.00000,64.00000,3.352131e-09,0.91978,4
219.54, 50.81333,      1.08519,105.478,50.00000,64.00000,3.342499e-09,0.91913,4
223.761, 55.13333,      1.13646,105.273,50.00000,64.00000,3.355163e-09,0.91888,4
228.091, 59.45333,      1.15037,105.11,50.00000,64.00000,3.343408e-09,0.91887,4
232.406, 63.77333,      1.15720,104.973,50.00000,64.00000,3.345233e-09,0.91886,4
236.748, 68.09333,      1.15841,104.928,50.00000,64.00000,3.345008e-09,0.91878,4
241.066, 72.41333,      1.15540,104.894,50.00000,64.00000,3.341545e-09,0.91862,4
245.39, 76.73333,      1.15826,104.894,50.00000,64.00000,3.342497e-09,0.91837,4
249.713, 81.05333,      1.16058,104.958,50.00000,64.00000,3.345512e-09,0.91803,4
254.028, 85.37333,      1.16050,105.007,50.00000,63.00000,3.340982e-09,0.91763,4
258.335, 89.69333,      1.16140,105.053,50.00000,63.00000,3.343905e-09,0.91719,4
262.67, 94.01333,      1.15647,105.053,50.00000,63.00000,3.344388e-09,0.91671,4
266.976, 98.33333,      1.15809,105.174,50.00000,63.00000,3.348336e-09,0.91619,4
271.302,102.653,      1.15287,105.125,50.00000,63.00000,3.342559e-09,0.91560,4
275.646,106.973,      1.14925,105.102,50.00000,63.00000,3.342707e-09,0.91499,4
279.943,111.293,      1.14462,105.125,50.00000,63.00000,3.343404e-09,0.91432,4
284.262,115.613,      1.13874,105.095,50.00000,63.00000,3.344092e-09,0.91358,4
288.581,119.933,      1.12994,105.038,50.00000,63.00000,3.341565e-09,0.91276,4
292.895,124.253,      1.12593,104.867,50.00000,63.00000,3.344691e-09,0.91183,4
297.225,128.573,      1.11577,104.673,50.00000,63.00000,3.345946e-09,0.91087,4
301.547,132.893,      1.10650,104.457,50.00000,63.00000,3.346508e-09,0.90982,4
305.847,137.213,      1.08992,104.131,50.00000,63.00000,3.351704e-09,0.90870,4
310.178,141.533,      1.09365,103.743,50.00000,63.00000,3.352156e-09,0.90752,4
314.505,145.853,      1.08254,103.265,50.00000,63.00000,3.340434e-09,0.90626,4
318.828,150.173,      1.06866,102.627,50.00000,63.00000,3.344030e-09,0.90490,4
323.139,154.493,      1.06299,101.75,50.00000,63.00000,3.346148e-09,0.90351,4
327.46,158.813,      1.05965,100.668,50.00000,63.00000,3.344725e-09,0.90208,4
331.799,163.133,      1.04683, 99.34698,50.00000,63.00000,3.346830e-09,0.90058,4
336.117,167.453,      1.03725, 97.63087,50.00000,63.00000,3.339278e-09,0.89903,4
340.425,171.773,      1.04192, 95.45940,50.00000,63.00000,3.347009e-09,0.89742,4
344.742,176.093,      1.04012, 92.75235,50.00000,63.00000,3.350227e-09,0.89569,4
349.061,180.413,      1.03969, 89.33557,50.00000,63.00000,3.338305e-09,0.89399,4
353.37,184.733,      1.04515, 85.04966,50.00000,63.00000,3.347286e-09,0.89224,4
357.701,189.053,      1.06677, 79.65470,50.00000,63.00000,3.344147e-09,0.89044,4
362.013,193.373,      1.08228, 73.10973,50.00000,63.00000,3.343555e-09,0.88860,4
366.339,197.693,      1.10893, 65.38758,50.00000,63.00000,3.341796e-09,0.88673,4
370.651,202.013,      1.08396, 56.81544,50.00000,63.00000,3.338274e-09,0.88474,4
374.965,206.333,      1.01685, 47.82919,50.00000,63.00000,3.340496e-09,0.88279,4
379.298,210.653,      0.92345, 39.10872,50.00000,63.00000,3.338142e-09,0.88082,4
383.611,214.973,      0.81122, 31.26141,50.00000,63.00000,3.343271e-09,0.87882,4
387.938,219.293,      0.66313, 24.65201,50.00000,63.00000,3.337961e-09,0.87679,4
392.256,223.613,      0.46062, 19.30671,50.00000,63.00000,3.341041e-09,0.87172,4
396.573,227.933,      0.21747, 15.21409,50.00000,63.00000,3.334424e-09,0.86724,4
400.897,232.253,-3.775164e-02, 12.27550,50.00000,63.00000,3.338236e-09,0.86449,4
405.224,236.573,     -0.25910, 10.34698,50.00000,63.00000,3.338218e-09,0.86262,4
409.528,240.893,     -0.41674,  9.34094,50.00000,63.00000,3.339966e-09,0.86186,4
413.863,245.213,     -0.51295,  9.15503,50.00000,63.00000,3.347624e-09,0.86157,4
418.149,249.533,     -0.59394,  9.16644,50.00000,63.00000,3.339353e-09,0.86155,4
422.488,253.853,     -0.66257,  9.24597,50.00000,63.00000,3.342294e-09,0.86162,4
426.799,258.173,     -0.73348,  9.31443,50.00000,63.00000,3.341621e-09,0.86167,4
431.132,262.493,     -0.80754,  9.31812,50.00000,63.00000,3.340151e-09,0.86164,4
435.46,266.813,     -0.88591,  9.42081,50.00000,63.00000,3.341506e-09,0.86151,4
439.779,271.133,     -0.97217,  9.42819,50.00000,63.00000,3.339010e-09,0.86125,4
444.086,275.453,     -1.04133,  9.57617,50.00000,63.00000,3.344161e-09,0.86089,4
448.412,279.773,     -1.12390,  9.59899,50.00000,63.00000,3.346197e-09,0.86044,4
452.742,284.093,     -1.20660,  9.63322,50.00000,63.00000,3.342858e-09,0.85990,4
457.061,288.413,     -1.29538,  9.67886,50.00000,63.00000,3.342484e-09,0.85929,4
461.376,292.733,     -1.37427,  9.72450,50.00000,63.00000,3.345248e-09,0.85863,4
465.702,297.053,     -1.45605,  9.69765,50.00000,63.00000,3.340819e-09,0.85793,4
470.006,301.373,     -1.53865,  9.76611,50.00000,63.00000,3.337896e-09,0.85719,4
474.343,305.693,     -1.62382,  9.82315,50.00000,63.00000,3.348683e-09,0.85643,4
478.662,310.013,     -1.71272,  9.87987,50.00000,63.00000,3.341754e-09,0.85562,4
482.974,314.333,     -1.80252,  9.93691,50.00000,63.00000,3.345556e-09,0.85483,4
487.308,318.653,     -1.88416,  9.95973,50.00000,63.00000,3.353958e-09,0.85401,4
491.625,322.973,     -1.96199,  9.99396,50.00000,63.00000,3.347903e-09,0.85320,4
495.95,327.293,     -2.04228, 10.08490,50.00000,63.00000,3.347385e-09,0.85239,4
500.258,331.613,     -2.12584, 10.09631,50.00000,63.00000,3.346844e-09,0.85156,4
504.594,335.933,     -2.19585, 10.15336,50.00000,63.00000,3.346207e-09,0.85073,4
508.906,340.253,     -2.27584, 10.15336,50.00000,63.00000,3.345626e-09,0.84991,4
513.223,344.573,     -2.34414, 10.21779,50.00000,63.00000,3.346909e-09,0.84908,4
517.548,348.893,     -2.41350, 10.21779,50.00000,63.00000,3.348475e-09,0.84825,4
521.874,353.213,     -2.46438, 10.17248,50.00000,63.00000,3.351829e-09,0.84741,4
526.205,357.533,     -2.52353, 10.26342,50.00000,63.00000,3.346470e-09,0.84652,4
530.516,361.853,     -2.57872, 10.29765,50.00000,63.00000,3.351095e-09,0.84568,4
534.839,366.173,     -2.63350, 10.32047,50.00000,63.00000,3.337127e-09,0.84483,4
539.161,370.493,     -2.68203, 10.28624,50.00000,63.00000,3.346542e-09,0.84398,4
543.487,374.813,     -2.73138, 10.36611,50.00000,63.00000,3.354332e-09,0.84312,4
547.801,379.133,     -2.76625, 10.40000,50.00000,63.00000,3.345525e-09,0.84226,4
552.124,383.453,     -2.81304, 10.41141,50.00000,63.00000,3.352498e-09,0.84138,4
556.456,387.773,     -2.85203, 10.44564,50.00000,63.00000,3.350840e-09,0.84052,4
560.77,392.093,     -2.89709, 10.45705,50.00000,63.00000,3.349562e-09,0.83966,4
565.08,396.413,     -2.92732, 10.52550,50.00000,63.00000,3.358166e-09,0.83878,4
569.428,400.733,     -2.97159, 10.53691,50.00000,63.00000,3.345656e-09,0.83789,4
573.736,405.053,     -2.99981, 10.54832,50.00000,63.00000,3.350017e-09,0.83701,4
578.068,409.373,     -3.03471, 10.57081,50.00000,63.00000,3.344729e-09,0.83615,4
582.387,413.693,     -3.06552, 10.57081,50.00000,63.00000,3.348252e-09,0.83526,4
586.71,418.013,     -3.10115, 10.60503,50.00000,63.00000,3.352536e-09,0.83437,4
591.024,422.333,     -3.13736, 10.65067,50.00000,64.00000,3.350398e-09,0.83347,4
595.343,426.653,     -3.17186, 10.62785,50.00000,64.00000,3.347759e-09,0.83258,4
599.664,430.95,     -3.19461, 10.61644,50.00000,64.00000,3.351981e-09,0.83170,4
604.132,431.49,      1.96668, 11.10638,50.00000,64.00000,3.342734e-09,0.83160,5
615.842,432.03,      8.51587, 11.56174,50.00000,64.00000,3.349407e-09,0.83149,5
625.62,432.57,      6.53468, 11.53893,50.00000,64.00000,3.347733e-09,0.83135,5
634.652,433.11,      5.87993, 11.67584,50.00000,64.00000,3.353363e-09,0.83125,5
644.866,433.65,      6.72601, 11.85805,50.00000,63.00000,3.344908e-09,0.83115,5
655.488,434.19,      6.78068, 11.99463,50.00000,64.00000,3.345806e-09,0.83101,5
666.224,434.73,      6.54787, 12.17685,50.00000,63.00000,3.351011e-09,0.83091,5
677.135,435.27,      6.31081, 12.26812,50.00000,63.00000,3.349215e-09,0.83081,5
688.159,435.81,      5.97551, 12.41611,50.00000,63.00000,3.350636e-09,0.83071,5
699.21,436.35,      5.54183, 12.54128,50.00000,64.00000,3.352074e-09,0.83057,5
710.306,436.89,      5.07995, 12.67785,50.00000,64.00000,3.342869e-09,0.83047,5
721.415,437.43,      4.56297, 12.81477,50.00000,64.00000,3.347109e-09,0.83036,5
732.513,437.97,      4.02260, 12.95134,50.00000,64.00000,3.349542e-09,0.83026,5
743.612,438.51,      3.45587, 13.04228,50.00000,64.00000,3.340246e-09,0.83013,5
754.686,439.05,      2.87114, 13.11074,50.00000,64.00000,3.343699e-09,0.83002,5
765.76,439.59,      2.27108, 13.24732,50.00000,64.00000,3.349985e-09,0.82992,5
776.788,440.13,      1.66782, 13.31577,50.00000,64.00000,3.349645e-09,0.82977,5
787.822,440.67,      1.05647, 13.40705,50.00000,64.00000,3.343354e-09,0.82967,5
793.536,440.95,      0.73692, 13.45235,50.00000,64.00000,            ,0.44748,5