File: data/TGA/ps_scf3_flynn_ozawa_wall/ExpDat_2025_11_18_SL_PS_Tosoh_F1_5K_min.csv
#EXPORTTYPE:                 ,DATA ALL
#FILE:                       ,2025_11_18_SL_PS_Tosoh_F1_5K_min.ngb-ss5
#FORMAT:                     ,NETZSCH5
#FTYPE:                      ,ASCII
#IDENTITY:                   ,PS_Tosoh_F1
#DECIMAL:                    ,POINT
#SEPARATOR:                  ,COMMA
#MTYPE:                      ,DSC
#INSTRUMENT:                 ,NETZSCH STA 449F5
#PROJECT:                    ,
#DATE/TIME:                  ,11/18/2025 11:26:36 AM (UTC-5)
#CORR. FILE:                 ,
#TEMPCAL:                    ,05-05-2025 14:38
#SENSITIVITY:                ,28-06-2023 13:53
#LABORATORY:                 ,Tran
#OPERATOR:                   ,Stan
#REMARK:                     ,
#SAMPLE:                     ,PS_Tosoh_F1
#SAMPLE MASS /mg:            ,4.48
#MATERIAL:                   ,
#REFERENCE:                  ,
#REFERENCE MASS /mg:         ,0
#TYPE OF CRUCIBLE:           ,Al2O3 85 ‘l, open
#SAMPLE CRUCIBLE MASS /mg:   ,0
#REFERENCE CRUCIBLE MASS /mg:,0
#DSC RANGE /‘V:              ,5000
#TG RANGE /mg:               ,35000
#TAU-R:                      ,---
#CORR. CODE:                 ,000
#EXO:                        ,-1
#RANGE:                      ,20›C....800›C/0.0....20.0K/min
#SEGMENT:                    ,S1-5/5
#SEG. 1:                     ,20›C/5.0(K/min)/100›C
#SEG. 2:                     ,100›C/00:05/100›C
#SEG. 3:                     ,100›C/10.0(K/min)/200›C
#SEG. 4:                     ,200›C/5.0(K/min)/600›C
#SEG. 5:                     ,600›C/20.0(K/min)/800›C

##Temp./›C,Time/min,DSC/(mW/mg),Mass/%,Gas Flow(purge2)/(ml/min),Gas Flow(protective)/(ml/min),TIC(scan:1)/A,Sensit./(uV/mW),Segment
 38.72400,  0.00000,      2.44404,100,50.00000,61.00000,            ,0.92492,1
 41.17000,  5.13333,      0.13161, 89.24978,50.00000,58.00000,3.402309e-09,0.92512,1
 59.54300, 10.26667,      1.70299, 92.63616,50.00000,58.00000,3.413724e-09,0.92515,1
 91.66000, 15.40000,      2.35015, 94.34330,50.00000,58.00000,3.431700e-09,0.92540,1
106.951, 19.38417,      0.86764, 92.45692,50.00000,58.00000,3.420433e-09,0.92583,2
108.198, 21.39417,      0.25281, 91.55536,50.00000,58.00000,3.426966e-09,0.92602,3
109.848, 22.16417,      0.82449, 92.66652,50.00000,58.00000,3.431849e-09,0.92609,3
113.457, 22.93417,      1.70577, 93.70179,50.00000,58.00000,3.438575e-09,0.92613,3
117.96, 23.70417,      2.28696, 94.34576,50.00000,58.00000,3.429517e-09,0.92617,3
123.313, 24.47417,      2.82200, 95.06808,50.00000,58.00000,3.432026e-09,0.92620,3
129.858, 25.24417,      3.46404, 95.89375,50.00000,58.00000,3.434200e-09,0.92620,3
137.375, 26.01417,      4.07306, 96.53772,50.00000,58.00000,3.436807e-09,0.92618,3
145.576, 26.78417,      4.56017, 97.01250,50.00000,58.00000,3.434636e-09,0.92614,3
154.232, 27.55417,      4.94722, 97.42656,50.00000,58.00000,3.436299e-09,0.92609,3
163.182, 28.32417,      5.24594, 97.76496,50.00000,58.00000,3.433594e-09,0.92601,3
172.258, 29.09417,      5.43344, 98.00737,50.00000,58.00000,3.434599e-09,0.92589,3
181.34, 29.86417,      5.51866, 98.15134,50.00000,58.00000,3.439423e-09,0.92578,3
190.341, 30.63417,      5.52426, 98.29777,50.00000,58.00000,3.431853e-09,0.92562,3
200.62, 31.56083,      5.24529, 98.23482,50.00000,58.00000,3.434923e-09,0.92538,4
208.834, 32.58750,      3.94282, 97.66652,50.00000,58.00000,3.434253e-09,0.92511,4
215.759, 33.61417,      3.35895, 97.57321,50.00000,58.00000,3.437409e-09,0.92479,4
221.832, 34.64083,      2.91429, 97.45201,50.00000,58.00000,3.434505e-09,0.92443,4
226.975, 35.66750,      2.50333, 97.30804,50.00000,58.00000,3.436444e-09,0.92404,4
231.731, 36.69417,      2.29991, 97.28013,50.00000,58.00000,3.435345e-09,0.92353,4
236.275, 37.72083,      2.17512, 97.28281,50.00000,59.00000,3.441341e-09,0.92305,4
240.715, 38.74750,      2.13108, 97.23728,50.00000,59.00000,3.437081e-09,0.92255,4
245.21, 39.77417,      2.13963, 97.26004,50.00000,58.00000,3.436701e-09,0.92205,4
249.762, 40.80083,      2.17593, 97.23728,50.00000,59.00000,3.441411e-09,0.92164,4
254.398, 41.82750,      2.20076, 97.22969,50.00000,59.00000,3.441241e-09,0.92119,4
259.139, 42.85417,      2.23652, 97.22969,50.00000,59.00000,3.441899e-09,0.92085,4
263.95, 43.88083,      2.26650, 97.19933,50.00000,59.00000,3.440451e-09,0.92055,4
268.839, 44.90750,      2.29230, 97.13616,50.00000,59.00000,3.434819e-09,0.92029,4
273.802, 45.93417,      2.31009, 97.01250,50.00000,59.00000,3.442920e-09,0.92002,4
278.794, 46.96083,      2.31749, 96.85848,50.00000,59.00000,3.441644e-09,0.91982,4
283.816, 47.98750,      2.32707, 96.67656,50.00000,59.00000,3.448559e-09,0.91962,4
288.866, 49.01417,      2.33160, 96.40134,50.00000,59.00000,3.431373e-09,0.91945,4
293.939, 50.04083,      2.33291, 96.08817,50.00000,59.00000,3.442810e-09,0.91929,4
299.026, 51.06750,      2.34300, 95.66138,50.00000,59.00000,3.436833e-09,0.91914,4
304.116, 52.09417,      2.36178, 95.28013,50.00000,59.00000,3.442926e-09,0.91903,4
309.225, 53.12083,      2.35795, 94.74219,50.00000,59.00000,3.433440e-09,0.91896,4
314.328, 54.14750,      2.35456, 94.15134,50.00000,59.00000,3.441827e-09,0.91890,4
319.433, 55.17417,      2.35229, 93.48973,50.00000,59.00000,3.436755e-09,0.91886,4
324.563, 56.20083,      2.35323, 92.73973,50.00000,59.00000,3.444823e-09,0.91885,4
329.686, 57.22750,      2.34792, 91.87098,50.00000,59.00000,3.442815e-09,0.91885,4
334.809, 58.25417,      2.35047, 90.85335,50.00000,59.00000,3.441827e-09,0.91885,4
339.928, 59.28083,      2.35647, 89.64866,50.00000,59.00000,3.444973e-09,0.91884,4
345.049, 60.30750,      2.35616, 88.26987,50.00000,59.00000,3.439748e-09,0.91884,4
350.18, 61.33417,      2.35841, 86.59554,50.00000,59.00000,3.439437e-09,0.91883,4
355.29, 62.36083,      2.36780, 84.65112,50.00000,59.00000,3.446147e-09,0.91882,4
360.417, 63.38750,      2.38319, 82.36830,50.00000,59.00000,3.444104e-09,0.91882,4
365.532, 64.41417,      2.39450, 79.68125,50.00000,59.00000,3.438695e-09,0.91881,4
370.65, 65.44083,      2.41587, 76.56763,50.00000,59.00000,3.435086e-09,0.91878,4
375.778, 66.46750,      2.45133, 72.80982,50.00000,59.00000,3.439510e-09,0.91877,4
380.899, 67.49417,      2.49415, 68.25424,50.00000,58.00000,3.446608e-09,0.91874,4
386.034, 68.52083,      2.53948, 62.76920,50.00000,58.00000,3.438584e-09,0.91871,4
391.142, 69.54750,      2.58721, 56.17813,50.00000,58.00000,3.450783e-09,0.91867,4
396.273, 70.57417,      2.62827, 48.54174,50.00000,58.00000,3.447961e-09,0.91863,4
401.405, 71.60083,      2.62570, 39.96830,50.00000,58.00000,3.451988e-09,0.91859,4
406.527, 72.62750,      2.55252, 30.81406,50.00000,58.00000,3.442414e-09,0.91854,4
411.666, 73.65417,      2.37388, 21.92746,50.00000,58.00000,3.443236e-09,0.91849,4
416.792, 74.68083,      2.08295, 14.25045,50.00000,59.00000,3.441882e-09,0.91842,4
421.932, 75.70750,      1.69220,  8.71250,50.00000,59.00000,3.444213e-09,0.91836,4
427.067, 76.73417,      1.29159,  5.31094,50.00000,58.00000,3.440614e-09,0.91829,4
432.208, 77.76083,      0.95852,  3.41429,50.00000,59.00000,3.445933e-09,0.91822,4
437.33, 78.78750,      0.73736,  2.36138,50.00000,58.00000,3.442443e-09,0.91813,4
442.471, 79.81417,      0.56856,  1.69464,50.00000,59.00000,3.447320e-09,0.91806,4
447.59, 80.84083,      0.42070,  1.32589,50.00000,58.00000,3.445302e-09,0.91798,4
452.71, 81.86750,      0.30034,  1.25781,50.00000,58.00000,3.452012e-09,0.91789,4
457.841, 82.89417,      0.20009,  1.28058,50.00000,58.00000,3.444693e-09,0.91779,4
462.955, 83.92083, 9.337093e-02,  1.31830,50.00000,58.00000,3.445563e-09,0.91769,4
468.065, 84.94750, 4.848386e-03,  1.34866,50.00000,59.00000,3.441956e-09,0.91760,4
473.206, 85.97417,-8.054280e-02,  1.40179,50.00000,58.00000,3.442791e-09,0.91750,4
478.345, 87.00083,     -0.18457,  1.46987,50.00000,58.00000,3.443933e-09,0.91741,4
483.475, 88.02750,     -0.28558,  1.48750,50.00000,58.00000,3.439492e-09,0.91729,4
488.595, 89.05417,     -0.38545,  1.50268,50.00000,58.00000,3.437121e-09,0.91719,4
493.739, 90.08083,     -0.47744,  1.56339,50.00000,58.00000,3.443479e-09,0.91708,4
498.882, 91.10750,     -0.58801,  1.59375,50.00000,58.00000,3.443316e-09,0.91698,4
504.007, 92.13417,     -0.68080,  1.61629,50.00000,58.00000,3.436939e-09,0.91685,4
509.147, 93.16083,     -0.78585,  1.61384,50.00000,58.00000,3.436722e-09,0.91674,4
514.298, 94.18750,     -0.88650,  1.61384,50.00000,58.00000,3.434071e-09,0.91662,4
519.426, 95.21417,     -0.98664,  1.66696,50.00000,58.00000,3.456406e-09,0.91651,4
524.577, 96.24083,     -1.08716,  1.67701,50.00000,58.00000,3.447342e-09,0.91639,4
529.707, 97.26750,     -1.18360,  1.71987,50.00000,58.00000,3.445233e-09,0.91625,4
534.856, 98.29417,     -1.28442,  1.75781,50.00000,58.00000,3.445952e-09,0.91613,4
540.001, 99.32083,     -1.37165,  1.78817,50.00000,58.00000,3.443234e-09,0.91600,4
545.138,100.347,     -1.46667,  1.83348,50.00000,57.00000,3.445507e-09,0.91588,4
550.277,101.374,     -1.54930,  1.86384,50.00000,57.00000,3.444661e-09,0.91572,4
555.419,102.401,     -1.63853,  1.90670,50.00000,57.00000,3.446145e-09,0.91560,4
560.567,103.427,     -1.71329,  1.93705,50.00000,57.00000,3.456629e-09,0.91545,4
565.703,104.454,     -1.80035,  1.96741,50.00000,57.00000,3.441165e-09,0.91532,4
570.841,105.481,     -1.87606,  1.97991,50.00000,57.00000,3.445140e-09,0.91516,4
575.993,106.507,     -1.95407,  2.01027,50.00000,57.00000,3.443957e-09,0.91502,4
581.138,107.534,     -2.02663,  2.04063,50.00000,57.00000,3.449706e-09,0.91487,4
586.299,108.561,     -2.10643,  2.00268,50.00000,57.00000,3.438021e-09,0.91472,4
591.442,109.588,     -2.18694,  2.00268,50.00000,58.00000,3.453390e-09,0.91456,4
596.605,110.614,     -2.26351,  2.00536,50.00000,58.00000,3.443395e-09,0.91438,4
599.951,111.198,     -1.90224,  2.00536,50.00000,58.00000,3.442931e-09,0.91430,5
606.09,111.582,      1.59261,  2.25536,50.00000,58.00000,3.452002e-09,0.91422,5
614.509,111.968,      4.11340,  2.38661,50.00000,58.00000,3.445050e-09,0.91417,5
622.057,112.353,      3.66877,  2.43973,50.00000,58.00000,3.445469e-09,0.91411,5
628.69,112.737,      2.68010,  2.41696,50.00000,58.00000,3.448395e-09,0.91402,5
635.527,113.123,      2.54036,  2.46987,50.00000,58.00000,3.448603e-09,0.91397,5
642.88,113.507,      2.81113,  2.53817,50.00000,58.00000,3.442107e-09,0.91391,5
650.496,113.892,      2.87913,  2.56830,50.00000,58.00000,3.449141e-09,0.91382,5
658.139,114.278,      2.71850,  2.62902,50.00000,58.00000,3.439929e-09,0.91377,5
665.822,114.662,      2.51750,  2.68214,50.00000,58.00000,3.444834e-09,0.91371,5
673.574,115.047,      2.32144,  2.68973,50.00000,58.00000,3.442230e-09,0.91363,5
681.378,115.433,      2.11188,  2.71987,50.00000,59.00000,3.439363e-09,0.91357,5
689.22,115.817,      1.86779,  2.78058,50.00000,59.00000,3.447680e-09,0.91351,5
697.086,116.203,      1.59961,  2.81094,50.00000,59.00000,3.443117e-09,0.91342,5
704.971,116.588,      1.32344,  2.84107,50.00000,59.00000,3.449052e-09,0.91336,5
712.844,116.972,      1.03066,  2.90179,50.00000,59.00000,3.446900e-09,0.91330,5
720.727,117.358,      0.73033,  2.92455,50.00000,59.00000,3.440260e-09,0.91321,5
728.609,117.743,      0.40369,  2.96228,50.00000,59.00000,3.440156e-09,0.91314,5
736.487,118.127, 7.849008e-02,  2.96228,50.00000,59.00000,3.446343e-09,0.91308,5
744.358,118.513,     -0.24187,  3.00022,50.00000,59.00000,3.441833e-09,0.91299,5
752.241,118.897,     -0.57629,  3.06094,50.00000,58.00000,3.444993e-09,0.91292,5
760.097,119.282,     -0.90134,  3.11384,50.00000,58.00000,3.441483e-09,0.91286,5
767.947,119.668,     -1.24058,  3.15179,50.00000,58.00000,3.439589e-09,0.91276,5
775.798,120.052,     -1.57854,  3.18214,50.00000,58.00000,3.440484e-09,0.91270,5
783.639,120.438,     -1.90836,  3.18214,50.00000,58.00000,3.439987e-09,0.91263,5
791.476,120.823,     -2.24239,  3.24263,50.00000,58.00000,            ,0.44831,5
793.815,120.938,     -2.34074,  3.27299,50.00000,58.00000,            ,0.44737,5