File: data/TGA/ps_scf3_flynn_ozawa_wall/ExpDat_2025_11_18_SL_PS_Tosoh_F1_2K_min.csv
#EXPORTTYPE:                 ,DATA ALL
#FILE:                       ,2025_11_18_SL_PS_Tosoh_F1_2K_min.ngb-ss5
#FORMAT:                     ,NETZSCH5
#FTYPE:                      ,ASCII
#IDENTITY:                   ,PS_Tosoh_F1
#DECIMAL:                    ,POINT
#SEPARATOR:                  ,COMMA
#MTYPE:                      ,DSC
#INSTRUMENT:                 ,NETZSCH STA 449F5
#PROJECT:                    ,
#DATE/TIME:                  ,11/18/2025 2:37:36 PM (UTC-5)
#CORR. FILE:                 ,
#TEMPCAL:                    ,05-05-2025 14:38
#SENSITIVITY:                ,28-06-2023 13:53
#LABORATORY:                 ,Tran
#OPERATOR:                   ,Stan
#REMARK:                     ,
#SAMPLE:                     ,PS_Tosoh_F1
#SAMPLE MASS /mg:            ,4.27
#MATERIAL:                   ,
#REFERENCE:                  ,
#REFERENCE MASS /mg:         ,0
#TYPE OF CRUCIBLE:           ,Al2O3 85 ‘l, open
#SAMPLE CRUCIBLE MASS /mg:   ,0
#REFERENCE CRUCIBLE MASS /mg:,0
#DSC RANGE /‘V:              ,5000
#TG RANGE /mg:               ,35000
#TAU-R:                      ,---
#CORR. CODE:                 ,000
#EXO:                        ,-1
#RANGE:                      ,20›C....800›C/0.0....20.0K/min
#SEGMENT:                    ,S1-5/5
#SEG. 1:                     ,20›C/5.0(K/min)/100›C
#SEG. 2:                     ,100›C/00:05/100›C
#SEG. 3:                     ,100›C/10.0(K/min)/200›C
#SEG. 4:                     ,200›C/2.0(K/min)/600›C
#SEG. 5:                     ,600›C/20.0(K/min)/800›C

##Temp./›C,Time/min,DSC/(mW/mg),Mass/%,Gas Flow(purge2)/(ml/min),Gas Flow(protective)/(ml/min),TIC(scan:1)/A,Sensit./(uV/mW),Segment
 27.70400,  0.00000,      2.12061,    100,50.00000,63.00000,            ,0.92311,1
 42.57200,  6.53333,      0.67058,     85.10960,50.00000,61.00000,3.429871e-09,0.92473,1
 76.04300, 13.06667,      2.41862,     88.49836,50.00000,61.00000,3.447014e-09,0.92508,1
105.473, 18.69917,      1.24175,     87.25059,50.00000,61.00000,3.442651e-09,0.92566,2
108.176, 21.51917,      0.26797,     85.92834,50.00000,61.00000,3.460305e-09,0.92598,3
110.923, 22.49917,      1.25033,     87.38571,50.00000,61.00000,3.456219e-09,0.92607,3
116.172, 23.47917,      2.28260,     88.40047,50.00000,61.00000,3.449898e-09,0.92614,3
122.706, 24.45917,      3.01029,     89.26674,50.00000,61.00000,3.450591e-09,0.92618,3
131.083, 25.43917,      3.90657,     90.24450,50.00000,61.00000,3.462566e-09,0.92620,3
140.946, 26.41917,      4.69874,     91.02061,50.00000,61.00000,3.452392e-09,0.92619,3
151.735, 27.39917,      5.28220,     91.57190,50.00000,61.00000,3.450524e-09,0.92614,3
163.057, 28.37917,      5.70015,     91.94286,50.00000,61.00000,3.454884e-09,0.92606,3
174.618, 29.35917,      5.93398,     92.22084,50.00000,61.00000,3.464890e-09,0.92594,3
186.146, 30.33917,      6.00594,     92.41171,50.00000,61.00000,3.453461e-09,0.92577,3
201.868, 31.79917,      5.25177,     92.00094,50.00000,61.00000,3.458648e-09,0.92545,4
213.335, 34.24917,      2.09406,     90.70023,50.00000,61.00000,3.455052e-09,0.92471,4
217.936, 36.69917,      0.79498,     89.96885,50.00000,61.00000,3.454095e-09,0.92371,4
220.453, 39.14917,      0.52298,     89.65621,50.00000,61.00000,3.454581e-09,0.92249,4
223.171, 41.59917,      0.61487,     89.48923,50.00000,61.00000,3.463464e-09,0.92142,4
226.683, 44.04917,      0.76904,     89.44965,50.00000,61.00000,3.454030e-09,0.92059,4
230.788, 46.49917,      0.87673,     89.38080,50.00000,61.00000,3.451800e-09,0.92000,4
235.322, 48.94917,      0.94023,     89.30656,50.00000,61.00000,3.463451e-09,0.91951,4
240.076, 51.39917,      0.96565,     89.25082,50.00000,61.00000,3.454551e-09,0.91917,4
244.947, 53.84917,      0.97184,     89.20328,50.00000,61.00000,3.452404e-09,0.91896,4
249.817, 56.29917,      0.96892,     89.07588,50.00000,61.00000,3.455124e-09,0.91887,4
254.708, 58.74917,      0.96131,     89.02037,50.00000,61.00000,3.459618e-09,0.91887,4
259.608, 61.19917,      0.95911,     88.90117,50.00000,61.00000,3.453943e-09,0.91886,4
264.507, 63.64917,      0.94822,     88.75808,50.00000,61.00000,3.465330e-09,0.91884,4
269.408, 66.09917,      0.94297,     88.52482,50.00000,61.00000,3.453718e-09,0.91880,4
274.308, 68.54917,      0.92692,     88.36862,50.00000,61.00000,3.445701e-09,0.91874,4
279.205, 70.99917,      0.92557,     88.12482,50.00000,61.00000,3.454109e-09,0.91865,4
284.093, 73.44917,      0.92157,     87.92084,50.00000,61.00000,3.444578e-09,0.91852,4
288.997, 75.89917,      0.91377,     87.60820,50.00000,61.00000,3.456419e-09,0.91837,4
293.893, 78.34917,      0.91401,     87.32201,50.00000,61.00000,3.460452e-09,0.91820,4
298.787, 80.79917,      0.91203,     87.00141,50.00000,61.00000,3.448513e-09,0.91800,4
303.682, 83.24917,      0.91370,     86.63583,50.00000,61.00000,3.452604e-09,0.91778,4
308.57, 85.69917,      0.90600,     86.15878,50.00000,61.00000,3.456419e-09,0.91754,4
313.481, 88.14917,      0.89434,     85.64754,50.00000,61.00000,3.449491e-09,0.91731,4
318.387, 90.59917,      0.88557,     85.01686,50.00000,61.00000,3.456164e-09,0.91705,4
323.293, 93.04917,      0.88489,     84.26721,50.00000,61.00000,3.452986e-09,0.91677,4
328.19, 95.49917,      0.86000,     83.30539,50.00000,61.00000,3.449868e-09,0.91649,4
333.091, 97.94917,      0.85893,     82.21897,50.00000,61.00000,3.463572e-09,0.91619,4
337.981,100.399,      0.86164,     80.80960,50.00000,61.00000,3.456097e-09,0.91590,4
342.887,102.849,      0.86130,     79.14824,50.00000,61.00000,3.446086e-09,0.91558,4
347.779,105.299,      0.84866,     77.09766,50.00000,61.00000,3.459294e-09,0.91523,4
352.667,107.749,      0.86154,     74.59368,50.00000,61.00000,3.445430e-09,0.91487,4
357.566,110.199,      0.87338,     71.47541,50.00000,61.00000,3.456197e-09,0.91448,4
362.464,112.649,      0.85492,     67.63630,50.00000,61.00000,3.448550e-09,0.91409,4
367.372,115.099,      0.87107,     62.87494,50.00000,61.00000,3.447556e-09,0.91365,4
372.272,117.549,      0.85458,     57.03021,50.00000,61.00000,3.456730e-09,0.91323,4
377.172,119.999,      0.85688,     49.86862,50.00000,61.00000,3.451631e-09,0.91276,4
382.063,122.449,      0.84004,     41.41944,50.00000,61.00000,3.449049e-09,0.91226,4
386.953,124.899,      0.76363,     31.86253,50.00000,62.00000,3.456039e-09,0.91173,4
391.859,127.349,      0.63773,     21.88712,50.00000,62.00000,3.448291e-09,0.91117,4
396.779,129.799,      0.42308,     12.48150,50.00000,62.00000,3.451839e-09,0.91060,4
401.669,132.249,      0.10498,      4.72904,50.00000,62.00000,3.445950e-09,0.91004,4
406.558,134.699,     -0.30451,     -0.49859,50.00000,62.00000,3.452132e-09,0.90941,4
411.454,137.149,     -0.59078,     -3.58244,50.00000,62.00000,3.456466e-09,0.90876,4
416.346,139.599,     -0.81461,     -5.31522,50.00000,62.00000,3.447667e-09,0.90809,4
421.252,142.049,     -0.98140,     -6.39906,50.00000,62.00000,3.454597e-09,0.90740,4
426.149,144.499,     -1.12096,     -6.98173,50.00000,62.00000,3.443376e-09,0.90668,4
431.065,146.949,     -1.23948,     -7.30515,50.00000,62.00000,3.456066e-09,0.90594,4
435.951,149.399,     -1.34673,     -7.40585,50.00000,62.00000,3.453413e-09,0.90518,4
440.843,151.849,     -1.43164,     -7.37143,50.00000,62.00000,3.446698e-09,0.90445,4
445.761,154.299,     -1.51956,     -7.31569,50.00000,62.00000,3.450196e-09,0.90365,4
450.645,156.749,     -1.61069,     -7.28384,50.00000,62.00000,3.454949e-09,0.90283,4
455.555,159.199,     -1.69688,     -7.22037,50.00000,62.00000,3.444735e-09,0.90198,4
460.449,161.649,     -1.78573,     -7.19649,50.00000,62.00000,3.456660e-09,0.90112,4
465.355,164.099,     -1.87849,     -7.15667,50.00000,62.00000,3.444702e-09,0.90024,4
470.261,166.549,     -1.97205,     -7.14075,50.00000,62.00000,3.451546e-09,0.89939,4
475.163,168.999,     -2.06841,     -7.12482,50.00000,62.00000,3.452248e-09,0.89846,4
480.063,171.449,     -2.15640,     -7.06932,50.00000,62.00000,3.450485e-09,0.89753,4
484.96,173.899,     -2.25085,     -7.08525,50.00000,62.00000,3.447977e-09,0.89657,4
489.859,176.349,     -2.34783,     -7.03747,50.00000,62.00000,3.458992e-09,0.89559,4
494.772,178.799,     -2.44738,     -7.01358,50.00000,62.00000,3.445377e-09,0.89461,4
499.676,181.249,     -2.54475,     -6.98970,50.00000,62.00000,3.451296e-09,0.89360,4
504.577,183.699,     -2.63694,     -6.96066,50.00000,62.00000,3.448976e-09,0.89264,4
509.466,186.149,     -2.73213,     -6.92623,50.00000,62.00000,3.445848e-09,0.89160,4
514.367,188.599,     -2.82385,     -6.94215,50.00000,62.00000,3.454545e-09,0.89056,4
519.283,191.049,     -2.91836,     -6.91030,50.00000,62.00000,3.451168e-09,0.88949,4
524.193,193.499,     -3.01106,     -6.91827,50.00000,62.00000,3.452835e-09,0.88842,4
529.099,195.949,     -3.10464,     -6.87588,50.00000,62.00000,3.451387e-09,0.88733,4
533.993,198.399,     -3.19445,     -6.87330,50.00000,62.00000,3.452471e-09,0.88622,4
538.884,200.849,     -3.28169,     -6.86253,50.00000,62.00000,3.450593e-09,0.88519,4
543.8,203.299,     -3.36731,     -6.84684,50.00000,62.00000,3.446759e-09,0.88406,4
548.704,205.749,     -3.44269,     -6.79110,50.00000,62.00000,3.459175e-09,0.88293,4
553.619,208.199,     -3.52753,     -6.76979,50.00000,62.00000,3.443064e-09,0.88178,4
558.529,210.649,     -3.60895,     -6.78571,50.00000,62.00000,3.455380e-09,0.88063,4
563.426,213.099,     -3.68938,     -6.76183,50.00000,62.00000,3.448050e-09,0.87954,4
568.322,215.549,     -3.77043,     -6.76183,50.00000,62.00000,3.452783e-09,0.87837,4
573.232,217.999,     -3.85345,     -6.73817,50.00000,62.00000,3.446374e-09,0.87719,4
578.141,220.449,     -3.92737,     -6.69836,50.00000,62.00000,3.448235e-09,0.87600,4
583.051,222.899,     -4.00703,     -6.71429,50.00000,62.00000,3.440527e-09,0.87352,4
587.96,225.349,     -4.08201,     -6.63466,50.00000,62.00000,3.444178e-09,0.87092,4
592.857,227.799,     -4.16962,     -6.65059,50.00000,62.00000,3.450001e-09,0.86902,4
597.762,230.249,     -4.24432,     -6.65059,50.00000,62.00000,3.446580e-09,0.86745,4
601.02,231.343,     -3.23703,     -6.54988,50.00000,62.00000,3.446693e-09,0.86682,5
610.079,231.833,      2.49188,     -6.13677,50.00000,62.00000,3.446864e-09,0.86655,5
620.356,232.322,      3.50087,     -6.07307,50.00000,62.00000,3.449963e-09,0.86630,5
628.627,232.812,      1.96680,     -6.03864,50.00000,62.00000,3.438495e-09,0.86606,5
637.201,233.303,      1.97357,     -5.94333,50.00000,62.00000,3.452528e-09,0.86580,5
646.669,233.792,      2.38703,     -5.83981,50.00000,62.00000,3.443981e-09,0.86556,5
656.35,234.282,      2.30526,     -5.75246,50.00000,62.00000,3.450852e-09,0.86532,5
666.105,234.773,      2.07858,     -5.65714,50.00000,62.00000,3.448125e-09,0.86507,5
675.984,235.262,      1.85624,     -5.57752,50.00000,62.00000,3.448613e-09,0.86483,5
685.967,235.752,      1.57466,     -5.49016,50.00000,62.00000,3.448506e-09,0.86459,5
696.001,236.243,      1.22782,     -5.43185,50.00000,62.00000,3.447022e-09,0.86435,5
706.051,236.732,      0.85388,     -5.39204,50.00000,62.00000,3.435969e-09,0.86411,5
716.122,237.222,      0.45269,     -5.26487,50.00000,62.00000,3.447780e-09,0.86388,5
726.192,237.713, 3.346384e-02,     -5.23326,50.00000,62.00000,3.445045e-09,0.86363,5
736.248,238.202,     -0.40825,     -5.16956,50.00000,62.00000,3.454724e-09,0.86341,5
746.306,238.692,     -0.86828,     -5.09016,50.00000,62.00000,3.441974e-09,0.86317,5
756.344,239.183,     -1.32802,     -5.04239,50.00000,62.00000,3.449522e-09,0.86295,5
766.376,239.673,     -1.80097,     -4.97892,50.00000,62.00000,3.447217e-09,0.86280,5
776.382,240.162,     -2.27163,     -4.94707,50.00000,62.00000,3.439814e-09,0.86259,5
786.391,240.653,     -2.75064,     -4.85176,50.00000,62.00000,3.436579e-09,0.86238,5
793.635,241.007,     -3.09599,     -4.83583,50.00000,62.00000,            ,0.44744,5