File: data/TGA/005d-B/005dB1-rGPC+flash MS_104 AMU_XIC
Time	Ion Current
min	mA
0.00	1.00000e-13
4.53	1.00000e-13
9.05	1.00000e-13
13.58	1.00000e-13
18.11	1.00000e-13
22.63	1.00000e-13
27.16	1.00000e-13
31.69	1.00000e-13
36.21	1.00000e-13
40.74	1.00000e-13
45.27	1.00000e-13
49.79	1.00000e-13
54.32	1.48292e-5
58.85	1.00000e-13
63.37	1.00000e-13
67.90	2.96585e-5
72.43	3.12804e-6
76.95	3.86951e-5
81.48	5.90853e-6
86.01	1.49451e-5
90.53	1.00000e-13
95.06	1.00000e-13
99.59	1.00000e-13
104.11	1.00000e-13
108.64	1.00000e-13
113.17	8.45730e-6
117.69	4.05487e-6
122.22	1.00000e-13
126.75	1.00000e-13
131.27	1.00000e-13
135.80	3.03536e-5
140.32	1.00000e-13
144.85	1.00000e-13
149.38	1.00000e-13
153.91	6.37194e-6
158.43	2.78048e-6
162.96	1.00000e-13
167.48	1.00000e-13
172.01	1.00000e-13
176.54	1.00000e-13
181.06	8.22560e-6
185.59	1.00000e-13
190.12	3.01219e-6
194.64	1.00000e-13
199.17	1.00000e-13
203.69	3.86951e-5
208.22	1.00000e-13
212.75	1.00000e-13
217.27	1.00000e-13
221.80	2.56036e-5
226.33	1.00000e-13
230.85	3.47560e-7
235.38	1.00000e-13
239.91	1.00000e-13
244.43	1.00000e-13
248.96	1.00000e-13
253.49	1.00000e-13
258.01	1.00000e-13
262.54	1.00000e-13
267.07	1.00000e-13
271.59	1.00000e-13
276.12	1.00000e-13
280.65	1.00000e-13
285.17	1.00000e-13
289.70	1.11219e-5
294.22	1.00000e-13
298.75	1.00000e-13
303.28	1.00000e-13
307.80	8.57316e-6
312.33	1.00000e-13
316.86	4.74999e-6
321.38	1.05427e-5
325.91	1.00000e-13
330.44	1.00000e-13
334.96	1.00000e-13
339.49	1.00000e-13
344.02	1.00000e-13
348.54	1.00000e-13
353.07	1.00000e-13
357.60	4.25182e-5
362.12	4.63414e-6
366.65	1.00000e-13
371.17	1.00000e-13
375.70	1.00000e-13
380.23	1.00000e-13
384.76	1.00000e-13
389.28	5.79267e-7
393.81	1.00000e-13
398.33	1.67988e-5
402.86	1.00000e-13
407.39	1.00000e-13
411.92	1.00000e-13
416.44	1.00000e-13
420.97	2.66463e-6
425.49	9.96340e-6
430.02	1.00000e-13
434.55	1.00000e-13
439.07	1.00000e-13
443.60	1.51768e-5
448.13	1.00000e-13
452.66	1.00793e-5
457.18	1.00000e-13
461.71	1.00000e-13
466.23	1.00000e-13
470.76	1.00000e-13
475.29	1.00000e-13
479.81	1.00000e-13
484.34	1.00000e-13
488.87	7.53048e-6
493.39	1.00000e-13
497.92	1.00000e-13
502.45	1.00000e-13
506.97	1.00000e-13
511.50	4.32133e-5
516.03	1.00000e-13
520.55	1.00000e-13
525.08	1.00000e-13
529.60	1.00000e-13
534.13	1.00000e-13
538.66	1.00000e-13
543.19	1.00000e-13
547.71	1.00000e-13
552.24	1.00000e-13
556.76	1.00000e-13
561.29	1.00000e-13
565.82	1.00000e-13
570.34	2.31707e-6
574.87	1.00000e-13
579.40	1.00000e-13
583.92	1.00000e-13
588.45	1.00000e-13
592.98	1.00000e-13
597.50	1.00000e-13
602.03	1.00000e-13
606.56	1.00000e-13
611.08	1.00000e-13
615.61	1.00000e-13
620.13	1.00000e-13
624.66	1.00000e-13
629.19	1.00000e-13
633.72	1.00000e-13
638.24	1.29756e-5
642.77	5.67682e-6
647.29	1.95792e-5
651.82	1.00000e-13
656.35	3.03536e-5
660.87	1.00000e-13
665.40	1.00000e-13
669.93	1.00000e-13
674.46	1.69146e-5
678.98	1.00000e-13
683.51	1.00000e-13
688.03	1.00000e-13
692.56	1.00000e-13
697.09	1.00000e-13
701.61	1.00000e-13
706.14	1.00000e-13
710.66	1.00000e-13
715.19	1.00000e-13
719.72	1.00000e-13
724.24	1.00000e-13
728.77	1.00000e-13
733.30	1.00000e-13
737.82	1.00000e-13
742.35	1.72622e-5
746.88	1.00000e-13
751.40	1.00000e-13
755.93	1.00000e-13
760.46	1.00000e-13
764.98	1.00000e-13
769.51	1.00000e-13
774.04	1.00000e-13
778.57	1.00000e-13
783.09	1.00000e-13
787.62	1.00000e-13
792.14	1.00000e-13
796.67	3.93902e-6
801.20	1.00000e-13
805.72	1.00000e-13
810.25	1.98109e-5
814.77	1.00000e-13
819.30	2.07378e-5
823.83	1.00000e-13
828.35	1.00000e-13
832.88	1.00000e-13
837.41	1.00000e-13
841.93	1.00000e-13
846.46	1.00000e-13
850.99	1.00000e-13
855.52	1.00000e-13
860.04	1.00000e-13
864.57	1.19329e-5
869.10	1.00000e-13
873.62	5.44511e-5
878.15	3.30182e-5
882.67	2.07378e-5
887.20	1.00000e-13
891.73	1.00000e-13
896.26	1.00000e-13
900.78	1.00000e-13
905.31	1.00000e-13
909.83	1.00000e-13
914.36	1.00000e-13
918.89	1.00000e-13
923.41	1.00000e-13
927.94	8.10974e-6
932.47	1.00000e-13
936.99	1.00000e-13
941.52	1.00000e-13
946.05	1.00000e-13
950.58	1.00000e-13
955.10	1.00000e-13
959.63	1.00000e-13
964.15	1.00000e-13
968.68	1.00000e-13
973.21	1.00000e-13
977.73	1.65670e-5
982.26	1.00000e-13
986.78	1.00000e-13
991.31	1.00000e-13
995.84	1.00000e-13
1000.37	1.00000e-13
1004.89	1.00000e-13
1009.42	8.68901e-6
1013.95	1.00000e-13
1018.47	1.00000e-13
1023.00	1.00000e-13
1027.52	1.00000e-13
1032.05	1.06585e-5
1036.58	1.00000e-13
1041.10	1.30914e-5
1045.63	1.00000e-13
1050.16	1.00000e-13
1054.68	3.92743e-5
1059.21	1.00000e-13
1063.74	1.00000e-13
1068.27	1.00000e-13
1072.79	1.00000e-13
1077.32	1.00000e-13
1081.84	1.00000e-13
1086.37	1.00000e-13
1090.90	1.00000e-13
1095.42	1.23963e-5
1099.95	1.00000e-13
1104.48	1.00000e-13
1109.01	1.15853e-6
1113.53	1.00000e-13
1118.06	1.43658e-5
1122.58	1.00000e-13
1127.11	1.00000e-13
1131.63	1.00000e-13
1136.16	1.00000e-13
1140.69	1.00000e-13
1145.21	1.00000e-13
1149.74	1.00000e-13
1154.27	5.79267e-7
1158.80	1.23963e-5
1163.32	1.00000e-13
1167.85	1.00000e-13
1172.38	1.00000e-13
1176.90	1.49451e-5
1181.43	1.00000e-13
1185.95	5.79267e-7
1190.48	1.00000e-13
1195.01	1.00000e-13
1199.53	1.00000e-13
1204.06	1.00000e-13
1208.59	1.00000e-13
1213.12	1.00000e-13
1217.64	1.00000e-13
1222.17	1.94634e-5
1226.69	1.00000e-13
1231.22	1.00000e-13
1235.75	1.00000e-13
1240.27	1.00000e-13
1244.80	1.00000e-13
1249.33	1.00000e-13
1253.85	1.00000e-13
1258.38	1.00000e-13
1262.91	1.00000e-13
1267.43	1.00000e-13
1271.96	8.42023e-4
1276.49	0.0112853
1281.01	0.0132282
1285.54	2.24987e-4
1290.06	2.81524e-5
1294.59	9.26828e-6
1299.12	1.00000e-13
1303.64	1.00000e-13
1308.17	1.00000e-13
1312.70	1.00000e-13
1314.32	1.00000e-13