File: data/TGA/005d-B/005dB1-rGPC+flash TG.txt
Filename	005dB1-rGPC+flash
Instrument name
Operator	Gwenael
rundate	2025-01-13
Sample name	005dB1-rGPC+flash
[step]
Step 1
Time	Temperature	Weight	Weight	Deriv. Weight
min	°C	mg	%	% / °C
0.01	26.44	5.058	99.981	-2.77558e-3
4.73	41.04	5.074	100.306	-6.17514e-3
9.53	64.37	5.072	100.260	-8.00040e-3
14.33	88.07	5.061	100.047	-8.90924e-3
19.13	103.04	5.047	99.762	-0.0109877
23.93	100.51	5.041	99.638	-0.0116222
28.73	111.37	5.040	99.623	-0.0147300
33.53	134.38	5.034	99.497	-0.0198281
38.33	158.56	5.013	99.093	-0.0243927
43.13	182.67	4.969	98.219	-0.0289021
47.93	206.68	4.922	97.301	-0.0306924
52.73	230.70	4.884	96.534	-0.0296222
57.53	254.75	4.855	95.973	-0.0300038
62.33	278.79	4.828	95.443	-0.0335880
67.13	299.99	4.792	94.719	-0.0418789
71.93	301.07	4.755	93.989	-0.0599471
76.73	299.65	4.730	93.487	-0.106304
81.53	300.05	4.709	93.076	0.655979
86.33	300.02	4.690	92.698	0.662891
91.13	299.99	4.672	92.350	-3.16087
95.93	300.01	4.655	92.018	14.8617
100.73	300.00	4.639	91.703	-6.37086
105.53	300.00	4.624	91.394	-27.8880
110.33	300.00	4.609	91.106	124.325
115.13	300.00	4.594	90.809	-86.4691
119.93	300.00	4.580	90.522	30.3758
124.73	300.00	4.566	90.251	-57.9092
129.52	300.00	4.552	89.972	-174.471
134.33	300.00	4.538	89.709	55.3092
139.13	300.00	4.525	89.443	199.256
143.93	300.00	4.512	89.191	171.935
148.73	300.00	4.499	88.939	46.7152
153.53	300.00	4.487	88.689	13.8514
158.33	300.00	4.475	88.448	-92.6230
163.13	300.00	4.462	88.201	-173.263
167.93	300.00	4.450	87.968	-34.3770
172.73	300.00	4.438	87.731	-52.1120
177.53	300.00	4.426	87.497	-44.7413
182.33	300.00	4.415	87.271	-83.0990
187.13	300.00	4.404	87.045	22.7531
191.93	300.00	4.392	86.819	-127.594
196.73	300.00	4.381	86.602	-103.962
201.53	300.00	4.370	86.382	-4.99104
206.33	300.00	4.359	86.163	23.6932
211.13	300.00	4.349	85.956	49.4364
215.93	300.00	4.338	85.751	56.0993
220.73	300.00	4.328	85.554	81.4044
225.53	300.00	4.318	85.349	-3.71992
230.33	300.00	4.308	85.146	-14.7363
235.13	300.00	4.297	84.945	11.4091
239.93	300.00	4.288	84.753	-95.5135
244.73	300.00	4.278	84.557	-47.4339
249.53	300.00	4.268	84.368	2.40351
254.33	300.00	4.258	84.166	69.0841
259.13	300.00	4.249	83.981	44.8483
263.92	300.00	4.239	83.785	16.4028
268.73	300.00	4.230	83.604	15.7915
273.53	300.00	4.220	83.418	-57.7237
278.33	300.00	4.210	83.227	-39.1029
283.13	300.00	4.201	83.038	-92.6105
287.93	300.00	4.192	82.862	-25.2343
292.73	300.00	4.183	82.676	4.25935
297.53	300.00	4.173	82.496	41.2270
302.33	300.00	4.164	82.314	131.815
307.13	300.00	4.155	82.137	38.3368
311.93	300.00	4.146	81.957	77.7495
316.73	300.00	4.137	81.782	78.5032
321.53	300.00	4.129	81.615	128.020
326.33	300.00	4.119	81.428	51.2638
331.13	300.00	4.111	81.262	78.6183
335.93	300.00	4.102	81.078	56.9961
340.73	300.00	4.093	80.901	-69.6118
345.53	300.00	4.084	80.724	-64.6940
350.33	300.00	4.075	80.549	-102.485
355.13	300.00	4.066	80.368	-68.8845
359.93	300.00	4.057	80.189	-22.5587
364.73	300.00	4.048	80.022	74.5389
369.53	300.00	4.039	79.845	1.64223
374.33	300.00	4.031	79.677	24.9475
379.13	300.00	4.022	79.493	-63.4472
383.93	300.00	4.013	79.329	-81.7870
388.73	300.00	4.005	79.169	-30.1993
393.53	300.00	3.997	79.000	-8.25066
398.33	300.00	3.988	78.835	-30.6883
403.13	300.00	3.980	78.670	-57.7862
407.93	300.00	3.971	78.497	32.1352
412.73	300.00	3.963	78.328	9.72659
417.53	300.00	3.955	78.175	29.6936
422.33	300.00	3.947	78.014	117.976
427.13	300.00	3.939	77.858	32.2017
431.93	300.00	3.930	77.692	-72.8555
436.73	300.00	3.922	77.535	0.0850441
441.53	300.00	3.915	77.381	54.7376
446.33	300.00	3.906	77.207	-2.30131
451.13	300.00	3.898	77.055	-30.3112
455.93	300.00	3.891	76.907	-49.7730
460.73	300.00	3.883	76.751	-16.9473
465.53	300.00	3.875	76.604	-19.9494
470.33	300.00	3.867	76.444	12.2016
475.13	300.00	3.860	76.296	18.2008
479.93	300.00	3.852	76.136	57.2550
484.73	300.00	3.844	75.988	-50.6840
489.53	300.00	3.836	75.834	5.82737
494.33	300.00	3.829	75.683	10.4930
499.13	300.00	3.821	75.538	26.4064
503.93	300.00	3.814	75.385	-54.0477
508.73	300.00	3.806	75.238	35.1064
513.53	300.00	3.799	75.091	18.8901
518.33	300.00	3.792	74.946	-46.9623
523.13	300.00	3.784	74.795	-15.0745
527.93	300.00	3.776	74.645	-1.54086
532.72	300.00	3.769	74.498	-55.5114
537.53	300.00	3.762	74.357	14.4865
542.33	300.00	3.754	74.205	54.0421
547.13	300.00	3.747	74.065	78.6719
551.93	300.00	3.740	73.921	40.4222
556.73	300.00	3.732	73.775	9.62602
561.53	300.00	3.725	73.634	-63.8393
566.33	300.00	3.718	73.495	-79.4985
571.13	300.00	3.711	73.349	-35.0499
575.93	300.00	3.704	73.208	99.9932
580.73	300.00	3.696	73.066	86.6351
585.53	300.00	3.689	72.929	101.586
590.33	300.00	3.682	72.784	83.3331
595.13	300.00	3.675	72.647	1.17504
599.93	300.00	3.668	72.503	-68.9319
604.73	300.00	3.661	72.361	-31.3089
609.53	300.00	3.654	72.222	-57.7101
614.33	300.00	3.646	72.072	-43.9984
619.13	300.00	3.640	71.943	57.2563
623.93	300.00	3.632	71.799	11.0146
628.73	300.00	3.625	71.660	13.1879
633.53	300.00	3.618	71.517	37.8387
638.33	300.00	3.611	71.372	0.155939
643.13	300.00	3.604	71.243	-16.6161
647.93	300.00	3.597	71.099	-16.2185
652.73	300.00	3.590	70.962	-30.2880
657.53	300.00	3.583	70.824	-60.3256
662.33	300.00	3.576	70.687	-36.3803
667.13	300.00	3.569	70.545	-2.07035
671.93	300.00	3.562	70.407	13.1418
676.73	300.00	3.555	70.273	19.4818
681.53	300.00	3.548	70.139	9.04507
686.33	300.00	3.541	69.997	5.60740
691.13	300.00	3.535	69.866	-81.5572
695.93	300.00	3.528	69.730	10.9232
700.73	300.00	3.521	69.605	3.32402
705.53	300.00	3.514	69.468	-0.218522
710.33	300.00	3.508	69.342	51.5409
715.13	300.00	3.502	69.214	15.1577
719.93	300.00	3.494	69.071	-75.1237
724.73	300.00	3.488	68.949	-102.719
729.53	300.00	3.482	68.822	-25.0055
734.33	300.00	3.475	68.695	-68.5038
739.13	300.00	3.469	68.566	70.2305
743.93	300.00	3.462	68.437	113.764
748.73	300.00	3.456	68.318	89.1414
753.53	300.00	3.450	68.192	46.9329
758.33	300.00	3.444	68.069	-31.8050
763.13	300.00	3.437	67.946	-12.4734
767.93	300.00	3.432	67.833	27.8211
772.73	300.00	3.425	67.701	26.2567
777.53	300.00	3.419	67.578	-19.9592
782.33	300.00	3.413	67.459	10.9986
787.13	300.00	3.406	67.332	-17.5892
791.93	300.00	3.400	67.205	6.20286
796.73	300.00	3.394	67.083	1.83892
801.53	300.00	3.388	66.963	8.62490
806.33	300.00	3.381	66.837	-28.2101
811.13	300.00	3.375	66.714	47.0710
815.93	300.00	3.369	66.592	-0.0922664
820.73	300.00	3.363	66.469	17.3328
825.53	300.00	3.357	66.349	9.40387
830.33	300.00	3.350	66.226	-30.8993
835.13	300.00	3.344	66.102	-58.7651
839.93	300.00	3.338	65.976	-21.2717
844.73	300.00	3.331	65.852	36.9524
849.53	300.00	3.325	65.727	41.8433
854.33	300.00	3.319	65.606	-9.09885
859.13	300.00	3.313	65.494	55.1118
863.93	300.00	3.307	65.366	-12.0132
868.73	300.00	3.301	65.247	-32.0669
873.53	300.00	3.295	65.126	-19.9690
878.33	300.00	3.289	65.011	-9.40730
883.13	300.00	3.283	64.890	-18.0091
887.93	300.00	3.277	64.772	66.7028
892.73	300.00	3.271	64.649	49.7728
897.53	300.00	3.265	64.533	-30.0232
902.33	300.00	3.259	64.416	-47.0320
907.13	300.00	3.253	64.292	-20.2981
911.93	300.00	3.247	64.181	-67.7702
916.73	300.00	3.241	64.062	73.3002
921.53	300.00	3.235	63.947	17.9807
926.33	300.00	3.229	63.831	24.9836
931.13	300.00	3.223	63.710	14.8613
935.93	300.00	3.217	63.592	-22.0256
940.73	300.00	3.211	63.480	-7.89804
945.53	300.00	3.205	63.362	-42.1129
950.33	300.00	3.199	63.243	30.3488
955.13	300.00	3.194	63.131	12.0033
959.93	300.00	3.188	63.019	24.4692
964.73	300.00	3.182	62.903	28.1388
969.53	300.00	3.176	62.788	26.1275
974.33	300.00	3.171	62.674	-44.5781
979.13	300.00	3.165	62.563	5.30596
983.93	300.00	3.159	62.448	6.96011
988.73	300.00	3.153	62.333	31.1580
993.53	300.00	3.148	62.217	23.8959
998.33	300.00	3.142	62.110	31.8401
1003.13	300.00	3.137	61.999	-24.8834
1007.93	300.00	3.131	61.883	-23.1950
1012.73	300.00	3.125	61.772	-60.1384
1017.53	300.00	3.119	61.660	-5.04449
1022.33	300.00	3.114	61.554	-30.8241
1027.13	300.00	3.108	61.432	13.7727
1031.93	300.00	3.102	61.325	-0.491910
1036.73	300.00	3.097	61.222	-8.27207
1041.53	300.00	3.091	61.104	-58.5768
1046.32	300.00	3.086	60.992	57.2111
1051.13	300.00	3.080	60.889	1.22294
1055.93	300.00	3.075	60.782	7.70068
1060.73	300.00	3.069	60.659	-18.5638
1065.53	300.00	3.063	60.553	-9.64207
1070.32	300.00	3.058	60.445	-77.2496
1075.13	300.00	3.052	60.334	0.426051
1079.93	300.00	3.047	60.224	48.9377
1084.73	300.00	3.041	60.120	8.16466
1089.53	300.00	3.036	60.013	65.3953
1094.33	300.00	3.031	59.912	68.2130
1099.13	300.00	3.025	59.795	-38.0408
1103.93	300.00	3.020	59.691	-47.9336
1108.73	300.00	3.014	59.580	3.73587
1113.53	300.00	3.009	59.480	-21.4495
1118.33	300.00	3.003	59.369	20.2591
1123.13	300.00	2.998	59.268	-3.98155
1127.93	300.00	2.993	59.165	37.0277
1132.73	300.00	2.988	59.054	-36.2067
1137.53	300.00	2.982	58.952	-25.2630
1142.33	300.00	2.977	58.847	-54.3309
1147.13	300.00	2.972	58.737	50.7722
1151.93	300.00	2.966	58.633	19.4012
1156.73	300.00	2.961	58.538	73.4545
1161.53	300.00	2.956	58.431	71.8006
1166.33	300.00	2.951	58.322	45.5617
1171.13	300.00	2.945	58.218	-62.3935
1175.93	300.00	2.941	58.126	-14.5270
1180.73	300.00	2.935	58.018	-17.1408
1185.53	300.00	2.930	57.918	-31.7071
1190.33	300.00	2.926	57.828	16.2836
1195.13	300.00	2.920	57.716	-18.8896
1199.93	300.00	2.914	57.609	-58.5505
1204.73	300.00	2.910	57.511	-15.2613
1209.53	300.00	2.904	57.407	48.5428
1214.33	300.00	2.899	57.310	38.3511
1219.13	300.00	2.894	57.205	41.1436
1223.93	300.00	2.889	57.109	-22.8970
1228.73	300.00	2.884	57.007	-61.3300
1233.53	300.00	2.879	56.905	-18.1224
1238.33	300.00	2.874	56.808	-51.8074
1243.13	300.00	2.869	56.707	74.8375
1247.93	300.00	2.863	56.601	-12.9001
1252.73	300.00	2.859	56.508	-0.0249479
1257.53	300.00	2.854	56.408	-0.0189991
1262.33	300.00	2.849	56.314	-0.0822229
1267.13	312.91	2.845	56.227	-0.242400
1271.93	358.69	2.792	55.191	-0.291749
1276.73	407.45	2.131	42.122	-0.278144
1281.53	455.60	0.274	5.418	-0.247278
1286.33	503.76	0.110	2.182	-0.181257
1291.13	551.89	0.108	2.127	-0.0734342
1295.93	600.00	0.108	2.126	-4.07024e-3
1300.73	648.09	0.105	2.072	-5.57794e-4
1305.53	696.17	0.104	2.050	-4.79604e-4
1310.33	744.24	0.102	2.020	-4.35837e-4
1314.53	786.29	0.102	2.018	-3.43077e-4