File: data/TGA/005d-B/005dB1-rGPC MS_104 AMU_XIC
Time	Ion Current
min	mA
0.00	1.00000e-13
4.53	1.00000e-13
9.05	1.00000e-13
13.58	1.00000e-13
18.11	1.00000e-13
22.63	1.00000e-13
27.16	1.00000e-13
31.68	1.00000e-13
36.21	1.00000e-13
40.74	1.00000e-13
45.27	1.00000e-13
49.79	1.00000e-13
54.32	1.00000e-13
58.84	1.00000e-13
63.37	1.00000e-13
67.90	1.00000e-13
72.43	1.00000e-13
76.95	1.00000e-13
81.48	6.14023e-6
86.00	1.00000e-13
90.53	1.00000e-13
95.06	2.66463e-6
99.58	6.02438e-6
104.11	1.49451e-5
108.64	1.00000e-13
113.16	1.00000e-13
117.69	1.00000e-13
122.22	1.00000e-13
126.75	1.00000e-13
131.27	6.95121e-7
135.80	1.00000e-13
140.32	1.00000e-13
144.85	4.86585e-6
149.38	1.00000e-13
153.90	1.00000e-13
158.43	1.00000e-13
162.96	8.10974e-6
167.48	1.00000e-13
172.01	1.00000e-13
176.54	1.00000e-13
181.06	1.00000e-13
185.59	1.00000e-13
190.11	1.00000e-13
194.64	1.00000e-13
199.17	1.00000e-13
203.70	1.00000e-13
208.22	1.00000e-13
212.75	1.00000e-13
217.28	1.00000e-13
221.80	1.00000e-13
226.33	1.00000e-13
230.86	1.00000e-13
235.38	1.00000e-13
239.91	1.00000e-13
244.44	1.00000e-13
248.96	1.00000e-13
253.49	1.00000e-13
258.01	7.64633e-6
262.54	1.00000e-13
267.07	1.00000e-13
271.59	1.00000e-13
276.12	1.00000e-13
280.65	1.00000e-13
285.17	1.00000e-13
289.70	1.00000e-13
294.23	1.00000e-13
298.75	1.00000e-13
303.28	1.00000e-13
307.81	1.00000e-13
312.34	1.00000e-13
316.86	1.00000e-13
321.39	1.00000e-13
325.91	1.00000e-13
330.44	1.00000e-13
334.96	1.00000e-13
339.49	1.00000e-13
344.02	1.00000e-13
348.55	1.00000e-13
353.07	1.00000e-13
357.60	1.00000e-13
362.13	1.00000e-13
366.65	1.00000e-13
371.18	1.00000e-13
375.71	1.00000e-13
380.23	1.22805e-5
384.76	1.00000e-13
389.28	1.00000e-13
393.81	1.00000e-13
398.34	1.39024e-5
402.86	1.00000e-13
407.39	1.00000e-13
411.92	1.00000e-13
416.45	1.00000e-13
420.97	1.00000e-13
425.50	9.26828e-7
430.03	1.00000e-13
434.55	1.00000e-13
439.08	1.00000e-13
443.60	1.00000e-13
448.13	1.00000e-13
452.66	1.00000e-13
457.18	1.00000e-13
461.71	1.00000e-13
466.24	1.00000e-13
470.76	1.00000e-13
475.29	1.00000e-13
479.81	1.43658e-5
484.34	1.00000e-13
488.87	1.00000e-13
493.39	9.84755e-6
497.92	1.00000e-13
502.45	1.00000e-13
506.97	1.00000e-13
511.50	1.00000e-13
516.03	1.00000e-13
520.55	1.00000e-13
525.08	1.00000e-13
529.61	1.04268e-6
534.14	1.00000e-13
538.67	1.00000e-13
543.19	1.00000e-13
547.71	1.00000e-13
552.24	1.00000e-13
556.77	1.00000e-13
561.29	1.00000e-13
565.82	1.00000e-13
570.35	1.00000e-13
574.87	1.00000e-13
579.40	1.00000e-13
583.92	1.00000e-13
588.45	1.00000e-13
592.98	1.00000e-13
597.51	1.00000e-13
602.03	1.00000e-13
606.56	1.00000e-13
611.08	1.00000e-13
615.61	1.00000e-13
620.14	1.15853e-7
624.66	1.00000e-13
629.19	1.40183e-5
633.72	1.00000e-13
638.25	1.00000e-13
642.78	1.00000e-13
647.30	1.00000e-13
651.82	1.00000e-13
656.35	1.00000e-13
660.88	1.00000e-13
665.40	1.00000e-13
669.93	1.00000e-13
674.46	1.00000e-13
678.98	1.00000e-13
683.51	1.00000e-13
688.04	1.49451e-5
692.56	1.00000e-13
697.09	1.00000e-13
701.62	1.00000e-13
706.14	1.00000e-13
710.67	1.00000e-13
715.20	1.00000e-13
719.72	1.00000e-13
724.25	1.00000e-13
728.77	1.00000e-13
733.30	1.00000e-13
737.83	2.89634e-6
742.36	1.00000e-13
746.89	1.00000e-13
751.41	9.03657e-6
755.94	1.00000e-13
760.46	1.00000e-13
764.99	1.00000e-13
769.51	1.00000e-13
774.04	1.00000e-13
778.57	1.00000e-13
783.09	1.00000e-13
787.62	1.00000e-13
792.15	1.00000e-13
796.67	1.00000e-13
801.20	1.00000e-13
805.73	2.47926e-5
810.25	1.00000e-13
814.78	1.22805e-5
819.31	1.00000e-13
823.83	1.00000e-13
828.36	1.00000e-13
832.88	1.00000e-13
837.41	1.00000e-13
841.94	1.00000e-13
846.47	2.31707e-7
851.00	1.00000e-13
855.52	1.00000e-13
860.05	1.00000e-13
864.57	1.00000e-13
869.10	1.00000e-13
873.62	1.00000e-13
878.15	1.00000e-13
882.68	1.00000e-13
887.20	1.00000e-13
891.73	1.00000e-13
896.26	1.00000e-13
900.78	1.00000e-13
905.31	1.11219e-5
909.84	1.00000e-13
914.36	1.00000e-13
918.89	1.00000e-13
923.42	1.00000e-13
927.94	1.00000e-13
932.47	1.00000e-13
937.00	1.00000e-13
941.52	1.00000e-13
946.05	1.00000e-13
950.58	1.00000e-13
955.10	1.00000e-13
959.63	1.00000e-13
964.16	1.00000e-13
968.69	1.00000e-13
973.21	1.00000e-13
977.73	1.00000e-13
982.26	1.00000e-13
986.79	1.00000e-13
991.31	1.00000e-13
995.84	1.00000e-13
1000.37	1.15853e-7
1004.89	1.00000e-13
1009.42	1.00000e-13
1013.95	1.00000e-13
1018.47	1.00000e-13
1023.00	1.00000e-13
1027.53	1.00000e-13
1032.05	1.00000e-13
1036.58	1.00000e-13
1041.11	1.00000e-13
1045.63	1.00000e-13
1050.16	1.00000e-13
1054.69	1.00000e-13
1059.21	3.93902e-6
1063.74	1.00000e-13
1068.27	1.00000e-13
1072.80	1.00000e-13
1077.33	1.00000e-13
1081.84	1.00000e-13
1086.37	1.00000e-13
1090.90	1.00000e-13
1095.42	1.00000e-13
1099.95	1.00000e-13
1104.48	1.00000e-13
1109.00	1.00000e-13
1113.53	1.00000e-13
1118.06	1.00000e-13
1122.59	1.00000e-13
1127.11	1.00000e-13
1131.64	1.00000e-13
1136.16	1.00000e-13
1140.69	1.00000e-13
1145.22	1.00000e-13
1149.74	1.00000e-13
1154.27	1.00000e-13
1158.80	1.00000e-13
1163.32	1.00000e-13
1167.85	1.00000e-13
1172.38	1.00000e-13
1176.91	6.95121e-6
1181.44	1.12378e-5
1185.96	1.00000e-13
1190.48	7.64633e-6
1195.01	1.00000e-13
1199.54	1.00000e-13
1204.06	1.00000e-13
1208.59	4.63414e-7
1213.12	1.00000e-13
1217.64	1.00000e-13
1222.17	1.00000e-13
1226.70	1.00000e-13
1231.22	1.00000e-13
1235.75	1.00000e-13
1240.27	1.00000e-13
1244.80	1.00000e-13
1249.33	1.00000e-13
1253.86	1.00000e-13
1258.38	1.00000e-13
1262.91	1.00000e-13
1267.43	2.54878e-6
1271.96	5.00603e-4
1276.49	9.24383e-3
1281.02	0.0102041
1285.54	7.37987e-5
1290.07	1.00000e-13
1294.60	1.00000e-13
1299.13	1.00000e-13
1303.66	1.00000e-13
1308.17	1.00000e-13
1312.71	5.32926e-6
1314.64	1.00000e-13