File: data/TGA/005d-B/005dB1-toyopearls MS_104 AMU_XIC
Time	Ion Current
min	mA
0.00	1.00000e-13
4.53	1.00000e-13
9.05	1.00000e-13
13.58	1.00000e-13
18.10	1.00000e-13
22.63	1.00000e-13
27.16	1.00000e-13
31.69	1.00000e-13
36.21	1.00000e-13
40.74	1.00000e-13
45.27	1.00000e-13
49.79	1.00000e-13
54.32	1.00000e-13
58.84	1.00000e-13
63.37	1.00000e-13
67.90	1.27439e-6
72.42	1.00000e-13
76.95	2.06219e-5
81.48	5.25975e-5
86.01	5.69999e-5
90.53	3.37134e-5
95.06	9.84755e-6
99.58	4.17073e-6
104.11	1.00000e-13
108.64	1.00000e-13
113.16	1.00000e-13
117.69	1.48292e-5
122.22	1.77256e-5
126.74	1.00000e-13
131.27	2.82682e-5
135.79	1.79573e-5
140.32	3.10487e-5
144.85	1.00000e-13
149.37	1.00000e-13
153.90	1.62195e-6
158.43	2.08536e-6
162.95	1.00000e-13
167.48	1.04268e-6
172.01	5.90853e-6
176.53	1.00000e-13
181.06	1.35549e-5
185.59	6.14023e-6
190.11	5.90853e-6
194.64	1.00000e-13
199.17	1.00000e-13
203.70	1.00000e-13
208.22	1.00000e-13
212.75	1.00000e-13
217.27	2.31707e-7
221.80	1.00000e-13
226.33	4.86585e-6
230.85	1.00000e-13
235.38	1.00000e-13
239.91	1.00000e-13
244.43	1.00000e-13
248.96	1.00000e-13
253.49	1.00000e-13
258.01	1.66829e-5
262.54	1.00000e-13
267.07	1.00000e-13
271.59	1.00000e-13
276.12	2.31707e-7
280.64	1.00000e-13
285.17	1.00000e-13
289.70	2.09695e-5
294.22	1.00000e-13
298.75	1.00000e-13
303.28	1.85366e-5
307.80	1.00000e-13
312.33	1.00000e-13
316.86	3.35975e-6
321.38	1.00000e-13
325.91	1.03110e-5
330.44	4.98170e-6
334.96	2.80365e-5
339.49	2.36341e-5
344.02	1.00000e-13
348.54	1.00000e-13
353.07	2.44451e-5
357.60	1.00000e-13
362.12	1.00000e-13
366.65	1.00000e-13
371.18	1.00000e-13
375.70	1.00000e-13
380.23	1.00000e-13
384.75	1.00000e-13
389.28	1.00000e-13
393.81	1.00000e-13
398.34	1.00000e-13
402.86	4.63414e-6
407.39	1.00000e-13
411.91	1.00000e-13
416.44	1.00000e-13
420.97	1.00000e-13
425.49	1.00000e-13
430.02	1.00000e-13
434.55	7.76218e-6
439.08	1.00000e-13
443.60	1.00000e-13
448.13	1.00000e-13
452.65	1.00000e-13
457.18	1.00000e-13
461.71	1.00000e-13
466.24	1.00000e-13
470.76	1.00000e-13
475.29	1.00000e-13
479.81	1.00000e-13
484.34	2.95426e-5
488.87	1.00000e-13
493.39	1.00000e-13
497.92	1.00000e-13
502.44	1.00000e-13
506.97	1.00000e-13
511.50	1.00000e-13
516.03	1.62195e-6
520.55	1.00000e-13
525.08	1.00000e-13
529.60	1.05427e-5
534.13	1.00000e-13
538.66	1.00000e-13
543.19	1.00000e-13
547.71	1.00000e-13
552.24	1.00000e-13
556.76	1.00000e-13
561.29	1.00000e-13
565.82	1.00000e-13
570.34	1.00000e-13
574.87	1.00000e-13
579.40	2.20122e-6
583.92	1.00000e-13
588.45	1.00000e-13
592.98	1.00000e-13
597.50	1.00000e-13
602.03	1.00000e-13
606.56	1.00000e-13
611.08	1.00000e-13
615.61	1.00000e-13
620.13	1.15853e-5
624.66	1.30914e-5
629.19	1.00000e-13
633.71	1.00000e-13
638.24	1.00000e-13
642.77	1.00000e-13
647.29	1.00000e-13
651.82	1.61036e-5
656.35	1.00000e-13
660.87	1.00000e-13
665.40	1.00000e-13
669.93	1.00000e-13
674.45	1.00000e-13
678.98	1.00000e-13
683.51	1.00000e-13
688.03	1.62195e-6
692.56	1.00000e-13
697.09	1.00000e-13
701.61	2.54878e-6
706.14	1.00000e-13
710.66	1.00000e-13
715.19	2.31707e-7
719.72	1.00000e-13
724.25	1.00000e-13
728.77	1.04268e-6
733.30	1.00000e-13
737.82	1.00000e-13
742.35	1.00000e-13
746.88	1.00000e-13
751.40	6.48779e-6
755.93	1.00000e-13
760.46	1.15853e-5
764.99	1.00000e-13
769.51	1.15853e-6
774.04	1.00000e-13
778.56	1.00000e-13
783.09	1.00000e-13
787.62	1.00000e-13
792.14	1.00000e-13
796.67	1.00000e-13
801.20	1.00000e-13
805.72	1.00000e-13
810.25	1.00000e-13
814.78	1.00000e-13
819.30	1.00000e-13
823.83	1.00000e-13
828.35	1.00000e-13
832.88	1.00000e-13
837.41	1.00000e-13
841.94	1.00000e-13
846.46	1.54085e-5
850.99	1.00000e-13
855.52	1.00000e-13
860.04	1.00000e-13
864.57	1.00000e-13
869.10	1.00000e-13
873.62	1.00000e-13
878.15	1.00000e-13
882.67	1.00000e-13
887.20	1.00000e-13
891.73	8.80486e-6
896.26	1.00000e-13
900.78	8.45730e-6
905.31	3.51036e-5
909.83	1.00000e-13
914.36	1.00000e-13
918.89	1.00000e-13
923.41	1.00000e-13
927.94	1.00000e-13
932.47	1.00000e-13
937.00	1.00000e-13
941.52	1.00000e-13
946.05	1.00000e-13
950.57	1.00000e-13
955.10	1.00000e-13
959.63	1.00000e-13
964.16	1.00000e-13
968.68	1.00000e-13
973.21	1.00000e-13
977.74	6.37194e-6
982.26	1.00000e-13
986.79	1.03110e-5
991.31	1.00000e-13
995.84	1.00000e-13
1000.37	1.00000e-13
1004.89	8.45730e-6
1009.42	6.37194e-6
1013.95	1.00000e-13
1018.47	1.73780e-5
1023.00	1.00000e-13
1027.53	1.00000e-13
1032.05	1.00000e-13
1036.58	1.00000e-13
1041.11	1.00000e-13
1045.63	1.00000e-13
1050.16	1.00000e-13
1054.68	1.00000e-13
1059.21	1.00000e-13
1063.74	1.00000e-13
1068.26	1.00000e-13
1072.79	1.00000e-13
1077.32	1.00000e-13
1081.85	1.00000e-13
1086.37	1.00000e-13
1090.90	1.00000e-13
1095.42	1.00000e-13
1099.95	1.39024e-6
1104.48	1.00000e-13
1109.00	1.00000e-13
1113.53	6.60365e-6
1118.06	1.00000e-13
1122.58	1.00000e-13
1127.11	1.00000e-13
1131.64	1.00000e-13
1136.16	1.00000e-13
1140.69	1.00000e-13
1145.22	1.00000e-13
1149.74	4.40243e-6
1154.27	1.00000e-13
1158.79	1.00000e-13
1163.32	1.00000e-13
1167.85	1.00000e-13
1172.38	1.00000e-13
1176.90	1.00000e-13
1181.43	1.00000e-13
1185.96	1.00000e-13
1190.48	1.00000e-13
1195.01	1.00000e-13
1199.53	1.00000e-13
1204.06	1.00000e-13
1208.59	1.00000e-13
1213.11	1.00000e-13
1217.64	8.31828e-5
1222.17	1.00000e-13
1226.69	1.00000e-13
1231.22	1.00000e-13
1235.75	1.00000e-13
1240.27	1.00000e-13
1244.80	1.00000e-13
1249.33	1.00000e-13
1253.85	1.00000e-13
1258.38	1.00000e-13
1262.91	1.00000e-13
1267.43	1.00000e-13
1271.96	6.91066e-4
1276.49	7.54681e-3
1281.01	8.74009e-3
1285.54	1.63006e-4
1290.06	4.55304e-5
1294.59	1.00000e-13
1299.12	1.00000e-13
1303.65	1.00000e-13
1308.17	1.00000e-13
1312.70	1.00000e-13
1314.15	1.00000e-13