File: data/TGA/005d-B/005dB1-toyopearls TG.txt
Filename	005dB1-toyopearls
Instrument name
Operator	Gwenael
rundate	2025-01-13
Sample name	005dB1-toyopearls
[step]
Step 1
Time	Temperature	Weight	Weight	Deriv. Weight
min	°C	mg	%	% / °C
0.01	26.66	4.224	99.944	-2.07129e-3
4.73	41.22	4.240	100.320	-4.67533e-3
9.53	64.56	4.237	100.263	-6.59821e-3
14.33	88.25	4.231	100.112	-7.64382e-3
19.13	103.05	4.220	99.865	-0.0104702
23.93	100.49	4.214	99.716	-0.0146264
28.73	111.56	4.213	99.691	-0.0209429
33.53	134.59	4.203	99.448	-0.0273885
38.33	158.76	4.177	98.837	-0.0340780
43.13	182.87	4.132	97.766	-0.0425750
47.93	206.87	4.078	96.499	-0.0491660
52.73	230.90	4.024	95.212	-0.0526777
57.53	254.95	3.970	93.948	-0.0580679
62.33	278.99	3.921	92.774	-0.0666013
67.13	300.05	3.858	91.297	-0.0802388
71.93	301.04	3.810	90.166	-0.105824
76.73	299.66	3.781	89.461	-0.174835
81.53	300.05	3.757	88.896	0.944872
86.33	300.02	3.736	88.396	0.912421
91.13	299.99	3.716	87.940	-4.22133
95.93	300.01	3.698	87.516	20.0405
100.73	300.00	3.682	87.121	-5.35705
105.53	300.00	3.666	86.738	8.06117
110.33	300.00	3.650	86.375	261.078
115.13	300.00	3.635	86.012	176.436
119.93	300.00	3.620	85.663	-36.9723
124.73	300.00	3.606	85.324	-152.294
129.52	300.00	3.592	84.991	-199.780
134.33	300.00	3.578	84.674	-148.500
139.13	300.00	3.565	84.349	-69.0492
143.93	300.00	3.551	84.036	134.897
148.73	300.00	3.538	83.730	247.871
153.53	300.00	3.526	83.426	121.879
158.33	300.00	3.513	83.136	-38.0204
163.13	300.00	3.501	82.837	-107.363
167.93	300.00	3.488	82.544	-292.057
172.73	300.00	3.476	82.254	-140.338
177.53	300.00	3.464	81.970	-13.3064
182.33	300.00	3.452	81.689	122.117
187.13	300.00	3.441	81.417	118.294
191.93	300.00	3.429	81.149	82.3183
196.73	300.00	3.418	80.882	70.5594
201.53	300.00	3.407	80.622	-77.9662
206.33	300.00	3.396	80.368	-2.43670
211.13	300.00	3.385	80.109	-24.8381
215.93	300.00	3.374	79.849	49.0326
220.73	300.00	3.364	79.597	-125.013
225.53	300.00	3.353	79.351	40.2074
230.33	300.00	3.343	79.105	65.9564
235.13	300.00	3.333	78.863	-26.0625
239.93	300.00	3.323	78.623	-76.3779
244.73	300.00	3.313	78.387	70.9315
249.53	300.00	3.302	78.144	92.4761
254.33	300.00	3.293	77.922	-18.7834
259.13	300.00	3.283	77.682	-58.1945
263.92	300.00	3.274	77.468	1.85507
268.73	300.00	3.264	77.228	-44.3028
273.53	300.00	3.254	76.998	-23.0203
278.33	300.00	3.245	76.779	95.4967
283.13	300.00	3.235	76.556	100.961
287.93	300.00	3.226	76.339	40.8635
292.73	300.00	3.217	76.119	-39.4106
297.53	300.00	3.208	75.903	-132.136
302.33	300.00	3.199	75.693	71.9552
307.13	300.00	3.189	75.467	-97.7435
311.93	300.00	3.180	75.254	39.8531
316.73	300.00	3.172	75.056	111.927
321.53	300.00	3.163	74.850	34.8457
326.33	300.00	3.154	74.645	19.1778
331.13	300.00	3.146	74.435	20.2308
335.93	300.00	3.137	74.234	-78.4716
340.73	300.00	3.129	74.033	-142.510
345.53	300.00	3.120	73.819	-74.8954
350.33	300.00	3.111	73.624	-14.6347
355.13	300.00	3.103	73.429	-23.3118
359.93	300.00	3.095	73.235	-10.3169
364.73	300.00	3.087	73.042	62.7981
369.53	300.00	3.079	72.849	9.66061
374.33	300.00	3.071	72.658	-39.7017
379.13	300.00	3.062	72.454	-98.2063
383.93	300.00	3.054	72.279	108.337
388.73	300.00	3.046	72.082	-82.1551
393.53	300.00	3.038	71.896	14.8520
398.33	300.00	3.030	71.701	53.4287
403.13	300.00	3.023	71.525	-22.0200
407.93	300.00	3.015	71.349	-63.1761
412.73	300.00	3.007	71.149	-0.277970
417.53	300.00	2.999	70.969	40.0289
422.33	300.00	2.991	70.787	52.3567
427.13	300.00	2.984	70.603	137.749
431.93	300.00	2.976	70.425	88.9504
436.73	300.00	2.969	70.248	47.8499
441.53	300.00	2.961	70.067	45.1954
446.33	300.00	2.954	69.892	-83.0176
451.13	300.00	2.946	69.720	-35.3293
455.93	300.00	2.939	69.542	-33.6172
460.73	300.00	2.931	69.368	-12.7626
465.53	300.00	2.924	69.195	-1.83602
470.33	300.00	2.917	69.020	41.9655
475.13	300.00	2.910	68.862	48.2950
479.93	300.00	2.903	68.682	-131.269
484.73	300.00	2.895	68.511	-41.2476
489.53	300.00	2.888	68.344	53.5680
494.33	300.00	2.881	68.174	94.4902
499.13	300.00	2.874	68.004	15.5902
503.93	300.00	2.867	67.840	48.6894
508.73	300.00	2.860	67.676	-14.8124
513.53	300.00	2.853	67.513	-77.3719
518.33	300.00	2.846	67.345	3.54986
523.13	300.00	2.839	67.185	33.0593
527.93	300.00	2.832	67.018	-78.5246
532.72	300.00	2.825	66.857	-17.0984
537.53	300.00	2.818	66.691	-25.5162
542.33	300.00	2.812	66.531	45.8397
547.13	300.00	2.805	66.364	79.7691
551.93	300.00	2.798	66.214	21.9739
556.73	300.00	2.791	66.055	-62.9942
561.53	300.00	2.785	65.900	35.4337
566.33	300.00	2.778	65.738	-47.3007
571.13	300.00	2.771	65.580	-32.5885
575.93	300.00	2.765	65.427	48.8280
580.73	300.00	2.758	65.274	31.1657
585.53	300.00	2.752	65.122	-75.2967
590.33	300.00	2.745	64.961	-10.1205
595.13	300.00	2.739	64.803	87.3082
599.93	300.00	2.732	64.653	62.4015
604.73	300.00	2.725	64.493	21.1540
609.53	300.00	2.719	64.350	47.3184
614.33	300.00	2.713	64.195	-71.1522
619.13	300.00	2.707	64.048	-119.265
623.93	300.00	2.701	63.907	-37.3288
628.73	300.00	2.695	63.760	30.4064
633.53	300.00	2.688	63.606	-44.2238
638.33	300.00	2.682	63.456	-50.0957
643.13	300.00	2.676	63.316	12.0560
647.93	300.00	2.669	63.150	12.1358
652.73	300.00	2.663	63.019	80.7382
657.53	300.00	2.657	62.869	33.5208
662.33	300.00	2.651	62.725	9.97748
667.13	300.00	2.644	62.577	-1.32071
671.93	300.00	2.638	62.430	-32.5830
676.73	300.00	2.632	62.292	-12.4039
681.53	300.00	2.626	62.149	-48.7835
686.33	300.00	2.620	61.999	8.98039
691.13	300.00	2.615	61.868	-9.48627
695.93	300.00	2.608	61.724	79.1974
700.73	300.00	2.603	61.585	48.9171
705.53	300.00	2.596	61.441	74.3627
710.33	300.00	2.591	61.312	-61.2850
715.13	300.00	2.585	61.163	-85.4910
719.93	300.00	2.579	61.035	-38.9982
724.73	300.00	2.573	60.896	-2.38705
729.53	300.00	2.568	60.755	-62.1231
734.33	300.00	2.562	60.628	38.7456
739.13	300.00	2.556	60.474	0.215744
743.93	300.00	2.551	60.354	6.64850
748.73	300.00	2.544	60.201	0.104894
753.53	300.00	2.539	60.080	23.6795
758.33	300.00	2.533	59.948	5.80573
763.13	300.00	2.528	59.815	28.2833
767.93	300.00	2.522	59.676	-66.3866
772.73	300.00	2.516	59.539	-43.3035
777.53	300.00	2.510	59.406	-31.4952
782.33	300.00	2.505	59.273	-19.7780
787.13	300.00	2.499	59.140	-76.3559
791.93	300.00	2.494	59.007	0.226421
796.73	300.00	2.488	58.880	-30.6483
801.53	300.00	2.483	58.752	82.5329
806.33	300.00	2.477	58.621	73.5999
811.13	300.00	2.472	58.490	18.8321
815.93	300.00	2.467	58.375	-5.37174
820.73	300.00	2.461	58.238	16.8683
825.53	300.00	2.456	58.108	-62.7299
830.33	300.00	2.450	57.985	-23.9576
835.13	300.00	2.445	57.859	53.7412
839.93	300.00	2.440	57.739	26.3321
844.73	300.00	2.435	57.610	8.82656
849.53	300.00	2.429	57.487	-15.5460
854.33	300.00	2.424	57.360	-57.1974
859.13	300.00	2.419	57.234	-113.270
863.93	300.00	2.414	57.111	13.9015
868.73	300.00	2.408	56.988	51.4240
873.53	300.00	2.403	56.869	23.3676
878.33	300.00	2.398	56.746	40.3800
883.13	300.00	2.393	56.624	24.6968
887.93	300.00	2.388	56.499	-69.3007
892.73	300.00	2.383	56.380	-2.92526
897.53	300.00	2.378	56.262	-22.2706
902.33	300.00	2.373	56.143	-42.0898
907.13	300.00	2.367	56.019	21.7260
911.93	300.00	2.362	55.900	-0.353059
916.73	300.00	2.357	55.777	-1.55277
921.53	300.00	2.352	55.662	28.0176
926.33	300.00	2.347	55.546	42.3271
931.13	300.00	2.342	55.428	-63.5418
935.93	300.00	2.337	55.311	-4.29419
940.73	300.00	2.332	55.192	2.60761
945.53	300.00	2.328	55.080	40.4289
950.33	300.00	2.323	54.965	67.2992
955.13	300.00	2.318	54.847	47.4762
959.93	300.00	2.313	54.726	-32.6672
964.73	300.00	2.309	54.627	-43.4352
969.53	300.00	2.303	54.497	-41.1541
974.33	300.00	2.298	54.379	-68.5111
979.13	300.00	2.293	54.258	-16.6961
983.93	300.00	2.288	54.148	-55.6210
988.73	300.00	2.284	54.035	-18.8856
993.53	300.00	2.279	53.937	-4.79781
998.33	300.00	2.274	53.816	47.5573
1003.13	300.00	2.270	53.711	89.2670
1007.93	300.00	2.265	53.595	24.1083
1012.73	300.00	2.260	53.481	-12.6988
1017.53	300.00	2.256	53.376	-68.5802
1022.33	300.00	2.251	53.258	-81.9917
1027.13	300.00	2.247	53.163	-65.3535
1031.93	300.00	2.242	53.043	18.3182
1036.73	300.00	2.236	52.920	13.4330
1041.53	300.00	2.232	52.821	89.2540
1046.32	300.00	2.228	52.715	58.6532
1051.13	300.00	2.224	52.618	46.2596
1055.93	300.00	2.219	52.510	-12.1269
1060.73	300.00	2.215	52.404	7.04662
1065.53	300.00	2.210	52.291	-40.0268
1070.32	300.00	2.205	52.184	-37.8037
1075.13	300.00	2.200	52.070	-60.3927
1079.93	300.00	2.196	51.972	-2.99780
1084.73	300.00	2.192	51.862	13.2413
1089.53	300.00	2.188	51.764	29.7359
1094.33	300.00	2.183	51.667	63.5398
1099.13	300.00	2.179	51.555	29.9556
1103.93	300.00	2.175	51.462	-113.617
1108.73	300.00	2.170	51.360	12.6450
1113.53	300.00	2.166	51.247	66.9586
1118.33	300.00	2.162	51.151	4.13557
1123.13	300.00	2.157	51.051	30.8920
1127.93	300.00	2.153	50.954	-33.4499
1132.73	300.00	2.149	50.847	-4.30419
1137.53	300.00	2.145	50.748	-14.6548
1142.33	300.00	2.140	50.647	-16.1872
1147.13	300.00	2.136	50.543	12.1666
1151.93	300.00	2.132	50.442	-2.79747
1156.73	300.00	2.128	50.359	-10.8897
1161.53	300.00	2.123	50.245	-23.7329
1166.33	300.00	2.119	50.149	-15.3950
1171.13	300.00	2.115	50.051	12.2959
1175.93	300.00	2.111	49.953	27.0842
1180.73	300.00	2.107	49.860	34.4224
1185.53	300.00	2.103	49.759	-5.76573
1190.33	300.00	2.099	49.661	4.02163
1195.13	300.00	2.094	49.561	-8.35928
1199.93	300.00	2.090	49.466	-33.1133
1204.73	300.00	2.087	49.375	-11.2075
1209.53	300.00	2.082	49.273	-4.08870
1214.33	300.00	2.078	49.180	20.5034
1219.13	300.00	2.074	49.083	-12.5004
1223.93	300.00	2.070	48.989	27.8452
1228.73	300.00	2.066	48.896	38.5745
1233.53	300.00	2.062	48.801	15.8775
1238.33	300.00	2.058	48.706	22.0389
1243.13	300.00	2.054	48.614	29.3788
1247.93	300.00	2.051	48.522	49.0685
1252.73	300.00	2.047	48.437	-0.0230699
1257.53	300.00	2.043	48.338	-0.0191474
1262.33	300.00	2.039	48.247	-0.0750385
1267.13	313.29	2.035	48.161	-0.202120
1271.93	359.14	1.990	47.082	-0.242410
1276.73	407.91	1.507	35.664	-0.231047
1281.53	456.05	0.256	6.067	-0.205231
1286.33	504.21	0.131	3.103	-0.149981
1291.13	552.34	0.128	3.022	-0.0615228
1295.93	600.45	0.126	2.976	-4.34409e-3
1300.73	648.54	0.123	2.921	-1.05215e-3
1305.53	696.62	0.121	2.853	-9.83822e-4
1310.33	744.69	0.119	2.827	-9.00600e-4
1314.53	786.74	0.119	2.827	-7.23981e-4