File: data/TGA/ps_scf3_flynn_ozawa_wall/1K/ExpDat_2025_11_13_SL_PSSCF3_005f_J3_15K_min.csv
#EXPORTTYPE:                 ,DATA ALL
#FILE:                       ,2025_11_13_SL_PSSCF3_005f_J3_15K_min.ngb-ss5
#FORMAT:                     ,NETZSCH5
#FTYPE:                      ,ASCII
#IDENTITY:                   ,005f-J3
#DECIMAL:                    ,POINT
#SEPARATOR:                  ,COMMA
#MTYPE:                      ,DSC
#INSTRUMENT:                 ,NETZSCH STA 449F5
#PROJECT:                    ,PS
#DATE/TIME:                  ,11/13/2025 11:49:19 AM (UTC-5)
#CORR. FILE:                 ,
#TEMPCAL:                    ,05-05-2025 14:38
#SENSITIVITY:                ,28-06-2023 13:53
#LABORATORY:                 ,Tran/AAG
#OPERATOR:                   ,Stan
#REMARK:                     ,
#SAMPLE:                     ,005f-J3
#SAMPLE MASS /mg:            ,4.25
#MATERIAL:                   ,
#REFERENCE:                  ,
#REFERENCE MASS /mg:         ,0
#TYPE OF CRUCIBLE:           ,Al2O3 85 ‘l, open
#SAMPLE CRUCIBLE MASS /mg:   ,0
#REFERENCE CRUCIBLE MASS /mg:,0
#DSC RANGE /‘V:              ,5000
#TG RANGE /mg:               ,35000
#TAU-R:                      ,---
#CORR. CODE:                 ,000
#EXO:                        ,-1
#RANGE:                      ,20›C....800›C/0.0....20.0K/min
#SEGMENT:                    ,S1-4/4
#SEG. 1:                     ,20›C/5.0(K/min)/100›C
#SEG. 2:                     ,100›C/00:05/100›C
#SEG. 3:                     ,100›C/15.0(K/min)/600›C
#SEG. 4:                     ,600›C/20.0(K/min)/800›C

##Temp./›C,Time/min,DSC/(mW/mg),Mass/%,Gas Flow(purge2)/(ml/min),Gas Flow(protective)/(ml/min),TIC(scan:1)/A,Sensit./(uV/mW),Segment
 33.06700, 0.00000,      2.49373,    100,50.00000,53.00000,            ,0.92409,1
 43.74700, 4.26667,      0.13170,     85.54282,50.00000,49.00000,3.613450e-09,0.92516,1
 49.38200, 8.53333,      0.83929,     86.39718,50.00000,49.00000,3.619770e-09,0.92544,1
 71.96600,12.80000,      2.03570,     89.27765,50.00000,50.00000,3.632347e-09,0.92550,1
 98.00100,16.80000,      2.16000,     89.82071,50.00000,50.00000,3.635157e-09,0.92558,2
107.003,20.00000,      0.67145,     87.62188,50.00000,50.00000,3.641333e-09,0.92581,2
107.844,21.29333,      0.27838,     86.87106,50.00000,50.00000,3.635699e-09,0.92592,3
108.511,21.72000,      0.45742,     87.49671,50.00000,50.00000,3.646867e-09,0.92595,3
110.315,22.14667,      1.07023,     88.67859,50.00000,50.00000,3.641703e-09,0.92599,3
113.227,22.57333,      1.87798,     89.71153,50.00000,50.00000,3.645574e-09,0.92602,3
116.821,23.00000,      2.59547,     90.51271,50.00000,50.00000,3.639916e-09,0.92605,3
120.791,23.42667,      3.13009,     91.04235,50.00000,50.00000,3.635828e-09,0.92608,3
125.115,23.85333,      3.56576,     91.56682,50.00000,50.00000,3.640083e-09,0.92611,3
129.92,24.28000,      4.02436,     92.09129,50.00000,50.00000,3.639539e-09,0.92614,3
135.348,24.70667,      4.55907,     92.71412,50.00000,50.00000,3.643913e-09,0.92615,3
141.386,25.13333,      5.13396,     93.30235,50.00000,50.00000,3.642264e-09,0.92618,3
147.907,25.56000,      5.68651,     93.75506,50.00000,50.00000,3.643256e-09,0.92619,3
154.802,25.98667,      6.16763,     94.10094,50.00000,50.00000,3.640280e-09,0.92620,3
161.939,26.41333,      6.57098,     94.39647,50.00000,50.00000,3.649784e-09,0.92620,3
169.301,26.84000,      6.91780,     94.63341,50.00000,50.00000,3.647788e-09,0.92620,3
176.82,27.26667,      7.21352,     94.82518,50.00000,50.00000,3.649751e-09,0.92619,3
184.472,27.69333,      7.45983,     94.95294,50.00000,50.00000,3.639508e-09,0.92618,3
192.22,28.12000,      7.64633,     95.04871,50.00000,50.00000,3.646641e-09,0.92616,3
199.948,28.54667,      7.76335,     95.08071,50.00000,50.00000,3.639536e-09,0.92614,3
207.616,28.97333,      7.82381,     95.08071,50.00000,50.00000,3.641242e-09,0.92610,3
215.215,29.40000,      7.84063,     95.04871,50.00000,50.00000,3.647836e-09,0.92605,3
222.734,29.82667,      7.82807,     94.98471,50.00000,50.00000,3.645370e-09,0.92602,3
230.166,30.25333,      7.80033,     94.91294,50.00000,50.00000,3.645845e-09,0.92595,3
237.509,30.68000,      7.75289,     94.78518,50.00000,50.00000,3.645763e-09,0.92590,3
244.764,31.10667,      7.69033,     94.62282,50.00000,50.00000,3.644345e-09,0.92582,3
251.916,31.53333,      7.61660,     94.46306,50.00000,50.00000,3.652555e-09,0.92576,3
258.952,31.96000,      7.53098,     94.23153,50.00000,50.00000,3.650574e-09,0.92566,3
265.921,32.38667,      7.44752,     93.96518,50.00000,50.00000,3.649348e-09,0.92555,3
272.796,32.81333,      7.36373,     93.69365,50.00000,50.00000,3.647456e-09,0.92547,3
279.583,33.24000,      7.28243,     93.37435,50.00000,50.00000,3.646797e-09,0.92534,3
286.295,33.66667,      7.20101,     92.94306,50.00000,50.00000,3.646027e-09,0.92525,3
292.941,34.09333,      7.14026,     92.49859,50.00000,50.00000,3.642243e-09,0.92510,3
299.529,34.52000,      7.08949,     91.95553,50.00000,50.00000,3.642268e-09,0.92499,3
306.078,34.94667,      7.04465,     91.22071,50.00000,50.00000,3.648341e-09,0.92483,3
312.582,35.37333,      7.02683,     90.35576,50.00000,50.00000,3.647542e-09,0.92465,3
319.056,35.80000,      7.02065,     89.27765,50.00000,50.00000,3.643542e-09,0.92453,3
325.503,36.22667,      7.10821,     87.92000,50.00000,50.00000,3.639418e-09,0.92433,3
331.915,36.65333,      7.34238,     86.34141,50.00000,50.00000,3.641298e-09,0.92420,3
338.306,37.08000,      7.43997,     84.57906,50.00000,50.00000,3.646642e-09,0.92398,3
344.684,37.50667,      7.54439,     82.59859,50.00000,50.00000,3.636011e-09,0.92383,3
351.034,37.93333,      7.65343,     80.41576,50.00000,50.00000,3.648351e-09,0.92360,3
357.383,38.36000,      7.76128,     77.92965,50.00000,50.00000,3.650833e-09,0.92336,3
363.727,38.78667,      7.86066,     75.16376,50.00000,50.00000,3.643657e-09,0.92320,3
370.048,39.21333,      7.96903,     71.88165,50.00000,50.00000,3.640648e-09,0.92294,3
376.373,39.64000,      8.05520,     68.11482,50.00000,50.00000,3.645781e-09,0.92276,3
382.7,40.06667,      8.20135,     63.68541,50.00000,50.00000,3.645691e-09,0.92251,3
389.024,40.49333,      8.32052,     58.59835,50.00000,50.00000,3.649454e-09,0.92231,3
395.354,40.92000,      8.43781,     52.76847,50.00000,50.00000,3.644820e-09,0.92217,3
401.683,41.34667,      8.51718,     46.27341,50.00000,50.00000,3.645138e-09,0.92196,3
407.986,41.77333,      8.56071,     39.25647,50.00000,50.00000,3.653281e-09,0.92183,3
414.317,42.20000,      8.53343,     31.93859,50.00000,50.00000,3.646009e-09,0.92163,3
420.633,42.62667,      8.40687,     24.68729,50.00000,50.00000,3.650253e-09,0.92151,3
426.95,43.05333,      8.08672,     18.07247,50.00000,50.00000,3.650490e-09,0.92133,3
433.289,43.48000,      7.59371,     12.27200,50.00000,50.00000,3.649541e-09,0.92116,3
439.61,43.90667,      7.01816,      7.48565,50.00000,50.00000,3.643191e-09,0.92106,3
445.959,44.33333,      6.52559,      3.83882,50.00000,50.00000,3.645144e-09,0.92090,3
452.297,44.76000,      6.09839,      1.41106,50.00000,50.00000,3.645147e-09,0.92081,3
458.624,45.18667,      5.79137,      0.15200,50.00000,50.00000,3.653025e-09,0.92067,3
464.955,45.61333,      5.58801,     -0.19929,50.00000,50.00000,3.642189e-09,0.92053,3
471.288,46.04000,      5.45734,     -0.22329,50.00000,50.00000,3.649264e-09,0.92045,3
477.639,46.46667,      5.34498,     -0.28729,50.00000,50.00000,3.654473e-09,0.92033,3
483.969,46.89333,      5.23143,     -0.26329,50.00000,50.00000,3.650489e-09,0.92025,3
490.29,47.32000,      5.12525,     -0.26071,50.00000,50.00000,3.647337e-09,0.92013,3
496.628,47.74667,      5.02448,     -0.26071,50.00000,50.00000,3.648609e-09,0.92006,3
502.967,48.17333,      4.91609,     -0.25271,50.00000,50.00000,3.643447e-09,0.91995,3
509.309,48.60000,      4.80892,     -0.24471,50.00000,50.00000,3.647405e-09,0.91985,3
515.661,49.02667,      4.69975,     -0.22071,50.00000,50.00000,3.650851e-09,0.91978,3
522.014,49.45333,      4.58457,     -0.14612,50.00000,50.00000,3.647085e-09,0.91969,3
528.383,49.88000,      4.46733,     -0.14612,50.00000,50.00000,3.643567e-09,0.91962,3
534.739,50.30667,      4.34075,     -0.10894,50.00000,50.00000,3.643595e-09,0.91953,3
541.107,50.73333,      4.21758,-7.694118e-02,50.00000,50.00000,3.643009e-09,0.91946,3
547.494,51.16000,      4.08729,-7.764706e-03,50.00000,50.00000,3.646566e-09,0.91940,3
553.874,51.58667,      3.95280,-3.976471e-02,50.00000,50.00000,3.646610e-09,0.91934,3
560.262,52.01333,      3.80650, 8.235294e-03,50.00000,50.00000,3.642164e-09,0.91929,3
566.654,52.44000,      3.67867, 4.023529e-02,50.00000,50.00000,3.646662e-09,0.91923,3
573.057,52.86667,      3.54133, 7.223529e-02,50.00000,50.00000,3.644245e-09,0.91920,3
579.461,53.29333,      3.39657,      0.10400,50.00000,50.00000,3.642511e-09,0.91914,3
585.858,53.72000,      3.24656,      0.13600,50.00000,50.00000,3.643584e-09,0.91910,3
592.264,54.14667,      3.10091,      0.16800,50.00000,50.00000,3.652534e-09,0.91907,3
597.829,54.51333,      2.99893,      0.18400,50.00000,50.00000,3.649140e-09,0.91905,4
603.439,54.83333,      3.69284,      0.26376,50.00000,50.00000,3.658758e-09,0.91903,4
609.919,55.15333,      4.70758,      0.34376,50.00000,50.00000,3.651571e-09,0.91901,4
616.514,55.47333,      5.00922,      0.43412,50.00000,50.00000,3.647664e-09,0.91899,4
622.816,55.79333,      4.67963,      0.40212,50.00000,50.00000,3.657186e-09,0.91898,4
628.931,56.11333,      4.25855,      0.41294,50.00000,50.00000,3.646714e-09,0.91896,4
635.086,56.43333,      4.05165,      0.41294,50.00000,50.00000,3.641247e-09,0.91895,4
641.384,56.75333,      3.99416,      0.47671,50.00000,50.00000,3.648752e-09,0.91895,4
647.772,57.07333,      3.89900,      0.49812,50.00000,50.00000,3.646932e-09,0.91895,4
654.174,57.39333,      3.74397,      0.54588,50.00000,50.00000,3.642998e-09,0.91895,4
660.565,57.71333,      3.53783,      0.54588,50.00000,50.00000,3.642973e-09,0.91895,4
666.997,58.03333,      3.32383,      0.57788,50.00000,50.00000,3.649627e-09,0.91895,4
673.427,58.35333,      3.10319,      0.58588,50.00000,50.00000,3.640735e-09,0.91895,4
679.876,58.67333,      2.88606,      0.61788,50.00000,50.00000,3.645878e-09,0.91894,4
686.344,58.99333,      2.66601,      0.67365,50.00000,50.00000,3.645039e-09,0.91894,4
692.809,59.31333,      2.41039,      0.67365,50.00000,50.00000,3.654774e-09,0.91894,4
699.295,59.63333,      2.15223,      0.68165,50.00000,50.00000,3.644461e-09,0.91894,4
705.781,59.95333,      1.88372,      0.71365,50.00000,50.00000,3.645991e-09,0.91894,4
712.256,60.27333,      1.60137,      0.73765,50.00000,50.00000,3.643089e-09,0.91894,4
718.743,60.59333,      1.30955,      0.77765,50.00000,50.00000,3.652341e-09,0.91894,4
725.221,60.91333,      0.99681,      0.74565,50.00000,50.00000,3.646432e-09,0.91894,4
731.701,61.23333,      0.67691,      0.80941,50.00000,50.00000,3.641611e-09,0.91893,4
738.17,61.55333,      0.34520,      0.80941,50.00000,50.00000,3.643859e-09,0.91893,4
744.66,61.87333,-2.227644e-02,      0.84141,50.00000,50.00000,3.639608e-09,0.91893,4
751.125,62.19333,     -0.38050,      0.84141,50.00000,50.00000,3.643196e-09,0.91893,4
757.605,62.51333,     -0.74947,      0.86541,50.00000,51.00000,3.643478e-09,0.91893,4
764.082,62.83333,     -1.12269,      0.90000,50.00000,51.00000,3.650493e-09,0.91893,4
770.549,63.15333,     -1.49232,      0.90000,50.00000,51.00000,3.653888e-09,0.91892,4
777.011,63.47333,     -1.85985,      0.93200,50.00000,51.00000,3.644939e-09,0.91892,4
783.485,63.79333,     -2.22764,      0.93200,50.00000,51.00000,3.644698e-09,0.91892,4
789.948,64.11333,     -2.61643,      0.96400,50.00000,51.00000,            ,0.44892,4
794.394,64.33333,     -2.85573,      0.96400,50.00000,51.00000,            ,0.44713,4