File: data/TGA/ps_scf3_flynn_ozawa_wall/1K/ExpDat_2025_11_13_SL_PSSCF3_005f_J3_20K_min.csv
#EXPORTTYPE:                 ,DATA ALL
#FILE:                       ,2025_11_13_SL_PSSCF3_005f_J3_20K_min.ngb-ss5
#FORMAT:                     ,NETZSCH5
#FTYPE:                      ,ASCII
#IDENTITY:                   ,005f-J3
#DECIMAL:                    ,POINT
#SEPARATOR:                  ,COMMA
#MTYPE:                      ,DSC
#INSTRUMENT:                 ,NETZSCH STA 449F5
#PROJECT:                    ,PS
#DATE/TIME:                  ,11/13/2025 9:52:29 AM (UTC-5)
#CORR. FILE:                 ,
#TEMPCAL:                    ,05-05-2025 14:38
#SENSITIVITY:                ,28-06-2023 13:53
#LABORATORY:                 ,Tran/AAG
#OPERATOR:                   ,Stan
#REMARK:                     ,
#SAMPLE:                     ,005f-J3
#SAMPLE MASS /mg:            ,4.0
#MATERIAL:                   ,
#REFERENCE:                  ,
#REFERENCE MASS /mg:         ,0
#TYPE OF CRUCIBLE:           ,Al2O3 85 ‘l, open
#SAMPLE CRUCIBLE MASS /mg:   ,0
#REFERENCE CRUCIBLE MASS /mg:,0
#DSC RANGE /‘V:              ,5000
#TG RANGE /mg:               ,35000
#TAU-R:                      ,---
#CORR. CODE:                 ,000
#EXO:                        ,-1
#RANGE:                      ,20›C....800›C/0.0....20.0K/min
#SEGMENT:                    ,S1-4/4
#SEG. 1:                     ,20›C/5.0(K/min)/100›C
#SEG. 2:                     ,100›C/00:05/100›C
#SEG. 3:                     ,100›C/20.0(K/min)/600›C
#SEG. 4:                     ,600›C/20.0(K/min)/800›C

##Temp./›C,Time/min,DSC/(mW/mg),Mass/%,Gas Flow(purge2)/(ml/min),Gas Flow(protective)/(ml/min),TIC(scan:1)/A,Sensit./(uV/mW),Segment
 32.97400, 0.00000,      0.53789,100,50.00000,48.00000,            ,0.92408,1
 36.17300, 4.00000,      0.32203, 90.20525,50.00000,48.00000,3.628229e-09,0.92426,1
 49.27000, 8.00000,      1.57608, 92.85550,50.00000,48.00000,3.650992e-09,0.92443,1
 72.42900,12.00000,      2.37383, 94.66850,50.00000,48.00000,3.661503e-09,0.92476,1
 96.68600,15.98333,      2.48378, 95.19750,50.00000,48.00000,3.659977e-09,0.92534,2
106.708,18.98333,      0.95715, 92.98550,50.00000,48.00000,3.673063e-09,0.92579,2
108.096,21.03833,      0.21277, 91.76100,50.00000,48.00000,3.670716e-09,0.92602,3
108.196,21.33833,      0.20427, 91.85150,50.00000,48.00000,3.667027e-09,0.92606,3
108.827,21.63833,      0.48378, 92.68875,50.00000,48.00000,3.673194e-09,0.92608,3
110.28,21.93833,      1.14105, 93.99825,50.00000,48.00000,3.672403e-09,0.92611,3
112.63,22.23833,      2.07353, 95.31325,50.00000,48.00000,3.669298e-09,0.92612,3
115.708,22.53833,      3.08684, 96.47300,50.00000,48.00000,3.673460e-09,0.92614,3
119.286,22.83833,      4.01232, 97.33275,50.00000,48.00000,3.673962e-09,0.92616,3
123.171,23.13833,      4.76740, 97.97775,50.00000,48.00000,3.674817e-09,0.92618,3
127.278,23.43833,      5.37026, 98.47550,50.00000,48.00000,3.666236e-09,0.92619,3
131.614,23.73833,      5.88423, 98.94775,50.00000,48.00000,3.669826e-09,0.92619,3
136.269,24.03833,      6.40017, 99.49650,50.00000,48.00000,3.668759e-09,0.92620,3
141.304,24.33833,      6.96853, 99.98575,50.00000,48.00000,3.675698e-09,0.92620,3
146.785,24.63833,      7.60297,100.529,50.00000,48.00000,3.660590e-09,0.92620,3
152.669,24.93833,      8.28073,101.086,50.00000,48.00000,3.671182e-09,0.92619,3
158.906,25.23833,      8.95458,101.507,50.00000,48.00000,3.674969e-09,0.92619,3
165.404,25.53833,      9.57823,101.813,50.00000,48.00000,3.676296e-09,0.92618,3
172.098,25.83833,     10.12768,102.07,50.00000,48.00000,3.672689e-09,0.92616,3
178.965,26.13833,     10.60136,102.316,50.00000,48.00000,3.666960e-09,0.92615,3
185.96,26.43833,     11.00659,102.418,50.00000,48.00000,3.676446e-09,0.92612,3
193.067,26.73833,     11.36109,102.557,50.00000,48.00000,3.673273e-09,0.92609,3
200.254,27.03833,     11.66974,102.636,50.00000,48.00000,3.666214e-09,0.92606,3
207.507,27.33833,     11.94084,102.681,50.00000,48.00000,3.675956e-09,0.92605,3
214.784,27.63833,     12.16719,102.681,50.00000,48.00000,3.674976e-09,0.92601,3
222.076,27.93833,     12.34454,102.647,50.00000,48.00000,3.672361e-09,0.92597,3
229.348,28.23833,     12.47418,102.546,50.00000,48.00000,3.673081e-09,0.92592,3
236.59,28.53833,     12.55648,102.407,50.00000,48.00000,3.674701e-09,0.92587,3
243.782,28.83833,     12.59828,102.198,50.00000,48.00000,3.671926e-09,0.92581,3
250.927,29.13833,     12.60431,101.977,50.00000,48.00000,3.673008e-09,0.92578,3
257.988,29.43833,     12.57797,101.725,50.00000,48.00000,3.674916e-09,0.92572,3
264.989,29.73833,     12.52659,101.428,50.00000,48.00000,3.676365e-09,0.92566,3
271.919,30.03833,     12.45561,101.035,50.00000,48.00000,3.677584e-09,0.92559,3
278.766,30.33833,     12.37298,100.619,50.00000,48.00000,3.673374e-09,0.92551,3
285.541,30.63833,     12.28439,100.198,50.00000,48.00000,3.676403e-09,0.92543,3
292.241,30.93833,     12.18374, 99.65200,50.00000,48.00000,3.671442e-09,0.92539,3
298.871,31.23833,     12.08133, 99.11175,50.00000,48.00000,3.666741e-09,0.92531,3
305.417,31.53833,     11.97973, 98.41900,50.00000,48.00000,3.669890e-09,0.92522,3
311.915,31.83833,     11.88796, 97.65250,50.00000,48.00000,3.668999e-09,0.92513,3
318.347,32.13833,     11.80540, 96.71050,50.00000,48.00000,3.676363e-09,0.92503,3
324.722,32.43833,     11.73180, 95.62725,50.00000,48.00000,3.674701e-09,0.92498,3
331.04,32.73833,     11.68037, 94.34325,50.00000,48.00000,3.673862e-09,0.92488,3
337.305,33.03833,     11.63337, 92.89225,50.00000,48.00000,3.670402e-09,0.92477,3
343.541,33.33833,     11.59118, 91.33100,50.00000,48.00000,3.678508e-09,0.92466,3
349.72,33.63833,     11.55188, 89.64250,50.00000,48.00000,3.671636e-09,0.92455,3
355.853,33.93833,     11.52628, 87.77875,50.00000,48.00000,3.671865e-09,0.92443,3
361.969,34.23833,     11.52556, 85.70275,50.00000,48.00000,3.665702e-09,0.92437,3
368.048,34.53833,     11.53412, 83.34375,50.00000,48.00000,3.668454e-09,0.92424,3
374.108,34.83833,     11.55212, 80.73600,50.00000,48.00000,3.664300e-09,0.92412,3
380.134,35.13833,     11.59291, 77.76900,50.00000,48.00000,3.669780e-09,0.92399,3
386.152,35.43833,     11.64847, 74.24775,50.00000,48.00000,3.670317e-09,0.92385,3
392.128,35.73833,     11.72862, 70.42100,50.00000,48.00000,3.680667e-09,0.92371,3
398.123,36.03833,     11.82553, 65.96075,50.00000,48.00000,3.672805e-09,0.92364,3
404.098,36.33833,     11.92340, 61.04800,50.00000,48.00000,3.665560e-09,0.92350,3
410.078,36.63833,     12.00696, 55.60625,50.00000,48.00000,3.679128e-09,0.92335,3
416.032,36.93833,     12.06262, 49.84775,50.00000,48.00000,3.674103e-09,0.92320,3
421.972,37.23833,     12.06829, 43.74400,50.00000,48.00000,3.674286e-09,0.92305,3
427.911,37.53833,     12.03065, 37.67725,50.00000,48.00000,3.658861e-09,0.92289,3
433.849,37.83833,     11.94369, 31.70675,50.00000,48.00000,3.676230e-09,0.92281,3
439.781,38.13833,     11.79103, 26.23375,50.00000,48.00000,3.678530e-09,0.92265,3
445.703,38.43833,     11.57042, 21.45675,50.00000,48.00000,3.671007e-09,0.92248,3
451.631,38.73833,     11.28493, 17.72325,50.00000,48.00000,3.671131e-09,0.92231,3
457.551,39.03833,     10.95900, 14.93450,50.00000,48.00000,3.666887e-09,0.92214,3
463.471,39.33833,     10.62392, 13.30550,50.00000,48.00000,3.663212e-09,0.92205,3
469.385,39.63833,     10.33749, 12.58125,50.00000,48.00000,3.667341e-09,0.92188,3
475.312,39.93833,     10.11031, 12.44000,50.00000,48.00000,3.676284e-09,0.92175,3
481.244,40.23833,      9.95168, 12.44000,50.00000,48.00000,3.670420e-09,0.92161,3
487.161,40.53833,      9.81598, 12.43150,50.00000,48.00000,3.671521e-09,0.92148,3
493.07,40.83833,      9.69856, 12.43150,50.00000,48.00000,3.675189e-09,0.92134,3
498.997,41.13833,      9.58042, 12.43150,50.00000,48.00000,3.667038e-09,0.92128,3
504.898,41.43833,      9.47367, 12.46550,50.00000,48.00000,3.663706e-09,0.92115,3
510.811,41.73833,      9.36409, 12.50775,50.00000,48.00000,3.672471e-09,0.92103,3
516.719,42.03833,      9.25464, 12.50775,50.00000,48.00000,3.674687e-09,0.92091,3
522.646,42.33833,      9.14304, 12.54175,50.00000,48.00000,3.666462e-09,0.92080,3
528.566,42.63833,      9.03908, 12.60975,50.00000,48.00000,3.670679e-09,0.92074,3
534.492,42.93833,      8.92898, 12.64350,50.00000,48.00000,3.668898e-09,0.92064,3
540.437,43.23833,      8.81809, 12.67750,50.00000,48.00000,3.671260e-09,0.92054,3
546.38,43.53833,      8.69784, 12.71150,50.00000,48.00000,3.670234e-09,0.92044,3
552.319,43.83833,      8.57678, 12.71150,50.00000,48.00000,3.670596e-09,0.92034,3
558.282,44.13833,      8.45152, 12.74550,50.00000,48.00000,3.665981e-09,0.92026,3
564.239,44.43833,      8.32545, 12.81325,50.00000,48.00000,3.668877e-09,0.92022,3
570.21,44.73833,      8.18747, 12.79625,50.00000,48.00000,3.671729e-09,0.92014,3
576.191,45.03833,      8.04426, 12.86425,50.00000,48.00000,3.670586e-09,0.92006,3
582.153,45.33833,      7.90037, 12.89825,50.00000,48.00000,3.670163e-09,0.91999,3
588.138,45.63833,      7.75097, 12.90650,50.00000,48.00000,3.672619e-09,0.91992,3
594.119,45.93833,      7.59155, 12.94900,50.00000,48.00000,3.670548e-09,0.91988,4
600.093,46.23833,      7.41734, 12.96600,50.00000,48.00000,3.666365e-09,0.91982,4
606.058,46.53833,      7.24311, 12.97450,50.00000,48.00000,3.671717e-09,0.91975,4
612.042,46.83833,      7.08460, 13.03400,50.00000,48.00000,3.672250e-09,0.91969,4
618.043,47.13833,      6.91902, 13.00850,50.00000,48.00000,3.669171e-09,0.91963,4
624.046,47.43833,      6.73273, 13.04250,50.00000,48.00000,3.664830e-09,0.91957,4
630.039,47.73833,      6.53521, 13.04250,50.00000,48.00000,3.672701e-09,0.91954,4
636.045,48.03833,      6.33239, 13.11025,50.00000,48.00000,3.669354e-09,0.91949,4
642.045,48.33833,      6.11633, 13.12725,50.00000,48.00000,3.667239e-09,0.91943,4
648.041,48.63833,      5.90406, 13.16125,50.00000,48.00000,3.672969e-09,0.91938,4
654.065,48.93833,      5.67378, 13.16125,50.00000,48.00000,3.671636e-09,0.91933,4
660.08,49.23833,      5.43068, 13.16125,50.00000,48.00000,3.668329e-09,0.91929,4
666.092,49.53833,      5.17847, 13.19500,50.00000,48.00000,3.659309e-09,0.91927,4
672.104,49.83833,      4.91861, 13.23200,50.00000,48.00000,3.661654e-09,0.91922,4
678.128,50.13833,      4.64689, 13.23200,50.00000,48.00000,3.657241e-09,0.91918,4
684.139,50.43833,      4.35652, 13.23200,50.00000,48.00000,3.669799e-09,0.91914,4
690.164,50.73833,      4.06174, 13.25725,50.00000,48.00000,3.661889e-09,0.91910,4
696.185,51.03833,      3.75469, 13.26025,50.00000,49.00000,3.662376e-09,0.91909,4
702.215,51.33833,      3.43999, 13.36200,50.00000,49.00000,3.667288e-09,0.91905,4
708.253,51.63833,      3.12036, 13.31675,50.00000,48.00000,3.662161e-09,0.91902,4
714.283,51.93833,      2.78780, 13.38750,50.00000,49.00000,3.659634e-09,0.91900,4
720.328,52.23833,      2.43945, 13.38750,50.00000,49.00000,3.658439e-09,0.91897,4
726.374,52.53833,      2.08590, 13.39600,50.00000,49.00000,3.658938e-09,0.91895,4
732.411,52.83833,      1.72310, 13.42150,50.00000,49.00000,3.656093e-09,0.91893,4
738.437,53.13833,      1.35827, 13.42150,50.00000,49.00000,3.657296e-09,0.91892,4
744.489,53.43833,      0.99271, 13.45525,50.00000,49.00000,3.661853e-09,0.91890,4
750.536,53.73833,      0.62805, 13.45525,50.00000,49.00000,3.657332e-09,0.91889,4
756.567,54.03833,      0.26231, 13.48925,50.00000,49.00000,3.659932e-09,0.91888,4
762.606,54.33833,     -0.10449, 13.46950,50.00000,49.00000,3.657687e-09,0.91887,4
768.647,54.63833,     -0.46774, 13.48650,50.00000,49.00000,3.658218e-09,0.91886,4
774.671,54.93833,     -0.83112, 13.48650,50.00000,49.00000,3.656680e-09,0.91885,4
780.712,55.23833,     -1.18325, 13.51200,50.00000,49.00000,3.657136e-09,0.91885,4
786.762,55.53833,     -1.53452, 13.50350,50.00000,49.00000,3.656588e-09,0.91885,4
792.801,55.83833,     -1.89298, 13.55425,50.00000,49.00000,            ,0.44777,4
794.703,55.93333,     -2.00715, 13.52025,50.00000,49.00000,            ,0.44701,4