File: data/TGA/ps_scf3_flynn_ozawa_wall/1K/ExpDat_2025_11_11_SL_PS_Tosoh_A1000_5K_min.csv
#EXPORTTYPE:                 ,DATA ALL
#FILE:                       ,2025_11_11_SL_PS_Tosoh_A1000_5K_min.ngb-ss5
#FORMAT:                     ,NETZSCH5
#FTYPE:                      ,ASCII
#IDENTITY:                   ,PS_A1000_5K_min
#DECIMAL:                    ,POINT
#SEPARATOR:                  ,COMMA
#MTYPE:                      ,DSC
#INSTRUMENT:                 ,NETZSCH STA 449F5
#PROJECT:                    ,PS
#DATE/TIME:                  ,11/11/2025 5:18:43 PM (UTC-5)
#CORR. FILE:                 ,
#TEMPCAL:                    ,05-05-2025 14:38
#SENSITIVITY:                ,28-06-2023 13:53
#LABORATORY:                 ,Tran/AAG
#OPERATOR:                   ,Stan
#REMARK:                     ,
#SAMPLE:                     ,PS_A1000_5K_min
#SAMPLE MASS /mg:            ,5.11
#MATERIAL:                   ,
#REFERENCE:                  ,
#REFERENCE MASS /mg:         ,0
#TYPE OF CRUCIBLE:           ,Al2O3 85 ‘l, open
#SAMPLE CRUCIBLE MASS /mg:   ,0
#REFERENCE CRUCIBLE MASS /mg:,0
#DSC RANGE /‘V:              ,5000
#TG RANGE /mg:               ,35000
#TAU-R:                      ,---
#CORR. CODE:                 ,000
#EXO:                        ,-1
#RANGE:                      ,20›C....800›C/0.0....20.0K/min
#SEGMENT:                    ,S1-4/4
#SEG. 1:                     ,20›C/5.0(K/min)/100›C
#SEG. 2:                     ,100›C/00:05/100›C
#SEG. 3:                     ,100›C/5.0(K/min)/600›C
#SEG. 4:                     ,600›C/20.0(K/min)/800›C

##Temp./›C,Time/min,DSC/(mW/mg),Mass/%,Gas Flow(purge2)/(ml/min),Gas Flow(protective)/(ml/min),TIC(scan:1)/A,Sensit./(uV/mW),Segment
 32.71600,  0.00000,      0.90484,    100,50.00000,51.00000,            ,0.92403,1
 41.24100,  5.66667,      0.14652,     89.35734,50.00000,48.00000,3.718386e-09,0.92488,1
 66.20500, 11.33333,      1.00349,     91.57358,50.00000,49.00000,3.728648e-09,0.92508,1
 99.77200, 16.73417,      1.06659,     90.27828,50.00000,49.00000,3.727252e-09,0.92550,2
107.846, 20.94750, 8.838757e-02,     87.13229,50.00000,49.00000,3.728271e-09,0.92597,3
108.34, 22.08083,      0.12074,     87.13679,50.00000,49.00000,3.724275e-09,0.92608,3
110.567, 23.21417,      0.39663,     87.53973,50.00000,49.00000,3.721860e-09,0.92615,3
113.649, 24.34750,      0.55463,     87.77886,50.00000,49.00000,3.724284e-09,0.92620,3
117.71, 25.48083,      0.73430,     88.09980,50.00000,49.00000,3.723197e-09,0.92620,3
122.653, 26.61417,      0.90217,     88.39198,50.00000,49.00000,3.721867e-09,0.92616,3
128.233, 27.74750,      1.02546,     88.60470,50.00000,49.00000,3.719809e-09,0.92607,3
134.253, 28.88083,      1.11627,     88.76399,50.00000,49.00000,3.722617e-09,0.92592,3
140.519, 30.01417,      1.17356,     88.87025,50.00000,49.00000,3.719258e-09,0.92572,3
146.879, 31.14750,      1.20311,     88.94990,50.00000,49.00000,3.731702e-09,0.92546,3
153.217, 32.28083,      1.21270,     88.98982,50.00000,49.00000,3.719834e-09,0.92515,3
159.499, 33.41417,      1.20875,     89.00313,50.00000,49.00000,3.720325e-09,0.92479,3
165.642, 34.54750,      1.19739,     89.04305,50.00000,49.00000,3.723888e-09,0.92443,3
171.679, 35.68083,      1.18069,     89.08278,50.00000,49.00000,3.721767e-09,0.92398,3
177.603, 36.81417,      1.16515,     89.08278,50.00000,49.00000,3.732398e-09,0.92347,3
183.452, 37.94750,      1.15282,     89.09609,50.00000,49.00000,3.717260e-09,0.92291,3
189.245, 39.08083,      1.14356,     89.10939,50.00000,49.00000,3.720459e-09,0.92232,3
195, 40.21417,      1.14067,     89.08278,50.00000,49.00000,3.726802e-09,0.92180,3
200.699, 41.34750,      1.13734,     89.03640,50.00000,49.00000,3.724107e-09,0.92133,3
206.385, 42.48083,      1.13807,     88.96321,50.00000,49.00000,3.725104e-09,0.92097,3
212.04, 43.61417,      1.14239,     88.91018,50.00000,49.00000,3.723753e-09,0.92061,3
217.684, 44.74750,      1.15296,     88.77730,50.00000,49.00000,3.724659e-09,0.92030,3
223.332, 45.88083,      1.16412,     88.64442,50.00000,49.00000,3.726090e-09,0.92003,3
228.971, 47.01417,      1.17779,     88.45851,50.00000,49.00000,3.722035e-09,0.91980,3
234.597, 48.14750,      1.19703,     88.32564,50.00000,49.00000,3.728846e-09,0.91959,3
240.231, 49.28083,      1.21819,     88.08434,50.00000,49.00000,3.722246e-09,0.91941,3
245.872, 50.41417,      1.23847,     87.84305,50.00000,49.00000,3.725196e-09,0.91925,3
251.502, 51.54750,      1.25512,     87.57515,50.00000,49.00000,3.723784e-09,0.91914,3
257.147, 52.68083,      1.27589,     87.25401,50.00000,49.00000,3.728107e-09,0.91904,3
262.788, 53.81417,      1.29554,     86.90861,50.00000,49.00000,3.723911e-09,0.91898,3
268.453, 54.94750,      1.31264,     86.53229,50.00000,49.00000,3.727944e-09,0.91894,3
274.089, 56.08083,      1.32539,     86.04971,50.00000,49.00000,3.727487e-09,0.91892,3
279.746, 57.21417,      1.34009,     85.56477,50.00000,49.00000,3.727417e-09,0.91892,3
285.397, 58.34750,      1.35132,     85.08004,50.00000,49.00000,3.720092e-09,0.91892,3
291.039, 59.48083,      1.36238,     84.50646,50.00000,49.00000,3.721661e-09,0.91891,3
296.696, 60.61417,      1.37329,     83.91311,50.00000,49.00000,3.717920e-09,0.91891,3
302.32, 61.74750,      1.37694,     83.27123,50.00000,49.00000,3.725182e-09,0.91891,3
307.976, 62.88083,      1.37883,     82.62016,50.00000,49.00000,3.721206e-09,0.91891,3
313.629, 64.01417,      1.37481,     81.86536,50.00000,49.00000,3.727080e-09,0.91890,3
319.282, 65.14750,      1.36515,     81.08376,50.00000,49.00000,3.719969e-09,0.91888,3
324.932, 66.28083,      1.34736,     80.20705,50.00000,49.00000,3.720618e-09,0.91886,3
330.602, 67.41417,      1.32564,     79.21957,50.00000,49.00000,3.723455e-09,0.91884,3
336.246, 68.54750,      1.53202,     78.17456,50.00000,49.00000,3.719377e-09,0.91881,3
341.918, 69.68083,      1.50456,     77.02779,50.00000,49.00000,3.721842e-09,0.91879,3
347.567, 70.81417,      1.55110,     75.76145,50.00000,49.00000,3.731786e-09,0.91875,3
353.214, 71.94750,      1.55698,     74.32231,50.00000,49.00000,3.724935e-09,0.91871,3
358.874, 73.08083,      1.51172,     72.70822,50.00000,49.00000,3.725237e-09,0.91867,3
364.514, 74.21417,      1.66584,     70.92818,50.00000,49.00000,3.716721e-09,0.91862,3
370.177, 75.34750,      1.67123,     68.70313,50.00000,49.00000,3.717590e-09,0.91857,3
375.825, 76.48083,      1.74449,     65.95793,50.00000,49.00000,3.716998e-09,0.91852,3
381.489, 77.61417,      1.83861,     62.82740,50.00000,49.00000,3.716304e-09,0.91847,3
387.145, 78.74750,      1.90441,     59.05245,50.00000,49.00000,3.720628e-09,0.91840,3
392.778, 79.88083,      1.96212,     54.65342,50.00000,49.00000,3.722368e-09,0.91835,3
398.437, 81.01417,      2.00586,     49.61213,50.00000,49.00000,3.714080e-09,0.91829,3
404.093, 82.14750,      1.54511,     43.73855,50.00000,50.00000,3.717006e-09,0.91822,3
409.753, 83.28083,      2.11715,     37.41311,50.00000,50.00000,3.721512e-09,0.91815,3
415.411, 84.41417,      2.08775,     30.62955,50.00000,50.00000,3.716148e-09,0.91809,3
421.082, 85.54750,      1.97621,     23.51174,50.00000,50.00000,3.719065e-09,0.91802,3
426.749, 86.68083,      1.69076,     16.42466,50.00000,50.00000,3.716738e-09,0.91794,3
432.419, 87.81417,      1.24027,      9.92231,50.00000,50.00000,3.720728e-09,0.91787,3
438.092, 88.94750,      0.72880,      4.57554,50.00000,50.00000,3.725288e-09,0.91780,3
443.779, 90.08083,      0.39965,      0.69217,50.00000,50.00000,3.717066e-09,0.91773,3
449.45, 91.21417,      0.14997,     -1.78082,50.00000,50.00000,3.720430e-09,0.91765,3
455.12, 92.34750,-3.574709e-02,     -3.12016,50.00000,50.00000,3.713042e-09,0.91757,3
460.784, 93.48083,     -0.16933,     -3.76438,50.00000,50.00000,3.717319e-09,0.91749,3
466.441, 94.61417,     -0.25591,     -4.00352,50.00000,50.00000,3.713753e-09,0.91740,3
472.091, 95.74750,     -0.31836,     -4.13640,50.00000,50.00000,3.726845e-09,0.91732,3
477.764, 96.88083,     -0.37480,     -4.21605,50.00000,50.00000,3.724494e-09,0.91723,3
483.418, 98.01417,     -0.43830,     -4.29589,50.00000,50.00000,3.719734e-09,0.91715,3
489.07, 99.14750,     -0.50393,     -4.31566,50.00000,50.00000,3.721409e-09,0.91706,3
494.746,100.281,     -0.56755,     -4.32231,50.00000,50.00000,3.718160e-09,0.91696,3
500.404,101.414,     -0.63747,     -4.30900,50.00000,50.00000,3.713100e-09,0.91686,3
506.079,102.547,     -0.70786,     -4.31566,50.00000,50.00000,3.720785e-09,0.91676,3
511.743,103.681,     -0.77770,     -4.26928,50.00000,50.00000,3.722347e-09,0.91665,3
517.41,104.814,     -0.85300,     -4.27593,50.00000,50.00000,3.712866e-09,0.91654,3
523.091,105.948,     -0.92703,     -4.23601,50.00000,50.00000,3.718749e-09,0.91645,3
528.756,107.081,     -0.99816,     -4.22270,50.00000,50.00000,3.718362e-09,0.91633,3
534.45,108.214,     -1.07229,     -4.20274,50.00000,50.00000,3.721483e-09,0.91621,3
540.127,109.347,     -1.14603,     -4.16301,50.00000,50.00000,3.720686e-09,0.91609,3
545.806,110.481,     -1.21755,     -4.14305,50.00000,50.00000,3.714905e-09,0.91597,3
551.475,111.614,     -1.29567,     -4.16967,50.00000,50.00000,3.718259e-09,0.91584,3
557.154,112.748,     -1.36946,     -4.14305,50.00000,50.00000,3.715449e-09,0.91572,3
562.828,113.881,     -1.44275,     -4.16301,50.00000,50.00000,3.724916e-09,0.91560,3
568.512,115.014,     -1.51501,     -4.12975,50.00000,50.00000,3.713390e-09,0.91546,3
574.205,116.147,     -1.59159,     -4.12975,50.00000,50.00000,3.724427e-09,0.91533,3
579.89,117.281,     -1.66655,     -4.12309,50.00000,50.00000,3.711377e-09,0.91519,3
585.565,118.414,     -1.74091,     -4.10548,50.00000,50.00000,3.721359e-09,0.91505,3
591.248,119.547,     -1.81469,     -4.12094,50.00000,50.00000,3.713281e-09,0.91490,3
596.929,120.681,     -1.88118,     -4.11429,50.00000,50.00000,3.708928e-09,0.91477,3
600.61,121.264,     -1.53038,     -4.02564,50.00000,50.00000,3.718301e-09,0.91469,4
608.004,121.689,      0.49988,     -3.76008,50.00000,50.00000,3.715850e-09,0.91463,4
617.213,122.114,      1.39070,     -3.65147,50.00000,50.00000,3.712030e-09,0.91458,4
625.15,122.539,      0.83374,     -3.66477,50.00000,50.00000,3.710885e-09,0.91451,4
632.474,122.964,      0.45438,     -3.60059,50.00000,50.00000,3.721192e-09,0.91447,4
640.348,123.389,      0.57243,     -3.54755,50.00000,50.00000,3.711240e-09,0.91441,4
648.71,123.814,      0.69525,     -3.50763,50.00000,50.00000,3.709877e-09,0.91436,4
657.211,124.239,      0.64373,     -3.46771,50.00000,50.00000,3.708988e-09,0.91429,4
665.714,124.664,      0.53539,     -3.42798,50.00000,50.00000,3.716768e-09,0.91425,4
674.288,125.089,      0.43625,     -3.37476,50.00000,50.00000,3.709252e-09,0.91418,4
682.928,125.514,      0.33661,     -3.32172,50.00000,50.00000,3.720852e-09,0.91411,4
691.604,125.939,      0.21428,     -3.29511,50.00000,50.00000,3.712405e-09,0.91406,4
700.305,126.364, 7.149587e-02,     -3.26849,50.00000,50.00000,3.713238e-09,0.91399,4
709.027,126.789,-7.609398e-02,     -3.21546,50.00000,50.00000,3.715826e-09,0.91395,4
717.748,127.214,     -0.24164,     -3.18885,50.00000,50.00000,3.706328e-09,0.91388,4
726.455,127.639,     -0.42363,     -3.16223,50.00000,50.00000,3.719129e-09,0.91383,4
735.164,128.064,     -0.61637,     -3.10920,50.00000,50.00000,3.706606e-09,0.91376,4
743.866,128.489,     -0.82995,     -3.06928,50.00000,50.00000,3.713675e-09,0.91371,4
752.569,128.914,     -1.05163,     -3.05597,50.00000,50.00000,3.710241e-09,0.91364,4
761.25,129.339,     -1.29157,     -3.00294,50.00000,50.00000,3.711665e-09,0.91357,4
769.919,129.764,     -1.55247,     -2.97632,50.00000,50.00000,3.712159e-09,0.91352,4
778.581,130.189,     -1.82852,     -2.94971,50.00000,50.00000,3.721719e-09,0.91345,4
787.246,130.614,     -2.10482,     -2.89667,50.00000,50.00000,3.709002e-09,0.91339,4
793.764,130.934,     -2.32038,     -2.87006,50.00000,50.00000,            ,0.44739,4