File: data/TGA/ps_scf3_flynn_ozawa_wall/1K/ExpDat_2025_11_13_SL_PSSCF3_005f_J3_10K_min.csv
#EXPORTTYPE:                 ,DATA ALL
#FILE:                       ,2025_11_13_SL_PSSCF3_005f_J3_10K_min.ngb-ss5
#FORMAT:                     ,NETZSCH5
#FTYPE:                      ,ASCII
#IDENTITY:                   ,005F-J3
#DECIMAL:                    ,POINT
#SEPARATOR:                  ,COMMA
#MTYPE:                      ,DSC
#INSTRUMENT:                 ,NETZSCH STA 449F5
#PROJECT:                    ,PS
#DATE/TIME:                  ,11/13/2025 2:11:34 PM (UTC-5)
#CORR. FILE:                 ,
#TEMPCAL:                    ,05-05-2025 14:38
#SENSITIVITY:                ,28-06-2023 13:53
#LABORATORY:                 ,Tran/AAG
#OPERATOR:                   ,Stan
#REMARK:                     ,
#SAMPLE:                     ,005F-J3
#SAMPLE MASS /mg:            ,4.0
#MATERIAL:                   ,
#REFERENCE:                  ,
#REFERENCE MASS /mg:         ,0
#TYPE OF CRUCIBLE:           ,Al2O3 85 ‘l, open
#SAMPLE CRUCIBLE MASS /mg:   ,0
#REFERENCE CRUCIBLE MASS /mg:,0
#DSC RANGE /‘V:              ,5000
#TG RANGE /mg:               ,35000
#TAU-R:                      ,---
#CORR. CODE:                 ,000
#EXO:                        ,-1
#RANGE:                      ,20›C....800›C/0.0....20.0K/min
#SEGMENT:                    ,S1-4/4
#SEG. 1:                     ,20›C/5.0(K/min)/100›C
#SEG. 2:                     ,100›C/00:05/100›C
#SEG. 3:                     ,100›C/10.0(K/min)/600›C
#SEG. 4:                     ,600›C/20.0(K/min)/800›C

##Temp./›C,Time/min,DSC/(mW/mg),Mass/%,Gas Flow(purge2)/(ml/min),Gas Flow(protective)/(ml/min),TIC(scan:1)/A,Sensit./(uV/mW),Segment
 35.04700, 0.00000,      4.02245,    100,50.00000,55.00000,            ,0.92441,1
 38.56600, 4.26667,      0.15137,     88.48000,50.00000,51.00000,3.612760e-09,0.92474,1
 50.69200, 8.53333,      1.55514,     91.13875,50.00000,51.00000,3.630121e-09,0.92484,1
 75.53200,12.80000,      2.53350,     93.29100,50.00000,51.00000,3.639968e-09,0.92503,1
100.059,16.79917,      2.48760,     93.31100,50.00000,51.00000,3.649052e-09,0.92545,2
107.775,19.99917,      0.71193,     90.72300,50.00000,51.00000,3.656426e-09,0.92587,2
108.239,21.43917,      0.23935,     90.03000,50.00000,51.00000,3.660805e-09,0.92603,3
109.331,22.07917,      0.66681,     91.02275,50.00000,51.00000,3.649469e-09,0.92607,3
111.92,22.71917,      1.52328,     92.07500,50.00000,51.00000,3.648499e-09,0.92612,3
115.383,23.35917,      2.22829,     92.78775,50.00000,51.00000,3.652602e-09,0.92616,3
119.347,23.99917,      2.72656,     93.38725,50.00000,51.00000,3.651605e-09,0.92619,3
123.991,24.63917,      3.25255,     94.11700,50.00000,51.00000,3.648473e-09,0.92620,3
129.454,25.27917,      3.85768,     94.82975,50.00000,51.00000,3.648006e-09,0.92620,3
135.658,25.91917,      4.43861,     95.37550,50.00000,51.00000,3.652762e-09,0.92618,3
142.336,26.55917,      4.92072,     95.85350,50.00000,51.00000,3.652920e-09,0.92616,3
149.372,27.19917,      5.30634,     96.21000,50.00000,51.00000,3.653735e-09,0.92612,3
156.678,27.83917,      5.61576,     96.54100,50.00000,51.00000,3.650838e-09,0.92606,3
164.152,28.47917,      5.85220,     96.78125,50.00000,51.00000,3.656076e-09,0.92598,3
171.644,29.11917,      6.00920,     96.98500,50.00000,51.00000,3.652132e-09,0.92589,3
179.156,29.75917,      6.09601,     97.08675,50.00000,51.00000,3.650888e-09,0.92578,3
186.626,30.39917,      6.13595,     97.18850,50.00000,51.00000,3.654219e-09,0.92565,3
194.032,31.03917,      6.13873,     97.25650,50.00000,51.00000,3.648227e-09,0.92554,3
201.32,31.67917,      6.11014,     97.26500,50.00000,51.00000,3.655718e-09,0.92537,3
208.494,32.31917,      6.06295,     97.26500,50.00000,51.00000,3.648539e-09,0.92520,3
215.546,32.95917,      6.00529,     97.22525,50.00000,51.00000,3.659783e-09,0.92500,3
222.474,33.59917,      5.94485,     97.19150,50.00000,51.00000,3.659467e-09,0.92479,3
229.305,34.23917,      5.88431,     97.05575,50.00000,51.00000,3.656877e-09,0.92456,3
236.033,34.87917,      5.82668,     96.95375,50.00000,51.00000,3.660828e-09,0.92431,3
242.688,35.51917,      5.76960,     96.81525,50.00000,51.00000,3.660134e-09,0.92411,3
249.272,36.15917,      5.71688,     96.64550,50.00000,51.00000,3.658259e-09,0.92384,3
255.791,36.79917,      5.68150,     96.47575,50.00000,51.00000,3.663851e-09,0.92355,3
262.261,37.43917,      5.65662,     96.26925,50.00000,51.00000,3.658352e-09,0.92324,3
268.707,38.07917,      5.63578,     95.99225,50.00000,51.00000,3.653767e-09,0.92292,3
275.134,38.71917,      5.60915,     95.68100,50.00000,51.00000,3.651678e-09,0.92259,3
281.512,39.35917,      5.58845,     95.33600,50.00000,51.00000,3.659530e-09,0.92224,3
287.878,39.99917,      5.56969,     94.88350,50.00000,51.00000,3.643901e-09,0.92199,3
294.242,40.63917,      5.55775,     94.38575,50.00000,51.00000,3.655206e-09,0.92172,3
300.57,41.27917,      5.55445,     93.77750,50.00000,51.00000,3.655492e-09,0.92145,3
306.914,41.91917,      5.55931,     92.94900,50.00000,51.00000,3.653545e-09,0.92119,3
313.248,42.55917,      5.56490,     91.91100,50.00000,51.00000,3.647566e-09,0.92096,3
319.58,43.19917,      5.58492,     90.72575,50.00000,51.00000,3.646412e-09,0.92073,3
325.925,43.83917,      5.62201,     89.26650,50.00000,51.00000,3.646348e-09,0.92053,3
332.263,44.47917,      5.63229,     87.77025,50.00000,51.00000,3.651884e-09,0.92039,3
338.595,45.11917,      5.65091,     85.96575,50.00000,51.00000,3.652217e-09,0.92022,3
344.922,45.75917,      5.66139,     84.10750,50.00000,51.00000,3.649915e-09,0.92006,3
351.275,46.39917,      5.69807,     81.90975,50.00000,51.00000,3.655492e-09,0.91992,3
357.621,47.03917,      5.79437,     79.36725,50.00000,51.00000,3.651542e-09,0.91978,3
363.964,47.67917,      5.84151,     76.45675,50.00000,51.00000,3.645189e-09,0.91966,3
370.316,48.31917,      5.92117,     72.94400,50.00000,51.00000,3.646552e-09,0.91956,3
376.657,48.95917,      5.99392,     68.74675,50.00000,51.00000,3.656100e-09,0.91944,3
383.011,49.59917,      6.07132,     63.68675,50.00000,51.00000,3.643126e-09,0.91934,3
389.356,50.23917,      6.15516,     57.81800,50.00000,51.00000,3.653977e-09,0.91924,3
395.718,50.87917,      6.20798,     51.18825,50.00000,51.00000,3.660125e-09,0.91916,3
402.07,51.51917,      6.20911,     43.78650,50.00000,51.00000,3.650241e-09,0.91907,3
408.427,52.15917,      6.14895,     36.20375,50.00000,51.00000,3.647652e-09,0.91901,3
414.785,52.79917,      6.02809,     28.57000,50.00000,51.00000,3.652414e-09,0.91896,3
421.156,53.43917,      5.84647,     21.19100,50.00000,51.00000,3.652295e-09,0.91892,3
427.519,54.07917,      5.61578,     14.40000,50.00000,51.00000,3.655090e-09,0.91889,3
433.91,54.71917,      5.30189,      8.55675,50.00000,51.00000,3.644029e-09,0.91885,3
440.256,55.35917,      4.76116,      4.02850,50.00000,51.00000,3.653873e-09,0.91884,3
446.629,55.99917,      4.18244,      0.76175,50.00000,51.00000,3.648423e-09,0.91882,3
453.008,56.63917,      3.88763,     -1.16725,50.00000,51.00000,3.641857e-09,0.91882,3
459.388,57.27917,      3.63360,     -2.09500,50.00000,51.00000,3.647074e-09,0.91882,3
465.759,57.91917,      3.44940,     -2.28450,50.00000,51.00000,3.649113e-09,0.91882,3
472.144,58.55917,      3.30907,     -2.30125,50.00000,51.00000,3.640056e-09,0.91882,3
478.513,59.19917,      3.17540,     -2.34375,50.00000,51.00000,3.647481e-09,0.91882,3
484.884,59.83917,      3.05669,     -2.30975,50.00000,51.00000,3.640362e-09,0.91882,3
491.252,60.47917,      2.93159,     -2.29300,50.00000,51.00000,3.638119e-09,0.91882,3
497.633,61.11917,      2.79782,     -2.29300,50.00000,51.00000,3.647161e-09,0.91882,3
504.014,61.75917,      2.66812,     -2.27600,50.00000,51.00000,3.644260e-09,0.91881,3
510.405,62.39917,      2.53885,     -2.24200,50.00000,51.00000,3.646313e-09,0.91881,3
516.788,63.03917,      2.39973,     -2.20800,50.00000,51.00000,3.653753e-09,0.91881,3
523.181,63.67917,      2.26356,     -2.20800,50.00000,51.00000,3.643137e-09,0.91880,3
529.576,64.31917,      2.11740,     -2.15150,50.00000,51.00000,3.647340e-09,0.91879,3
535.978,64.95917,      1.96963,     -2.13450,50.00000,51.00000,3.646132e-09,0.91879,3
542.377,65.59917,      1.82422,     -2.07500,50.00000,51.00000,3.651021e-09,0.91878,3
548.79,66.23917,      1.67096,     -2.04125,50.00000,51.00000,3.647902e-09,0.91876,3
555.191,66.87917,      1.51642,     -2.04125,50.00000,51.00000,3.645108e-09,0.91875,3
561.608,67.51917,      1.35830,     -2.01575,50.00000,51.00000,3.651642e-09,0.91874,3
568.021,68.15917,      1.19246,     -1.99025,50.00000,51.00000,3.641477e-09,0.91872,3
574.435,68.79917,      1.02912,     -1.96475,50.00000,51.00000,3.643334e-09,0.91870,3
580.852,69.43917,      0.86496,     -1.96475,50.00000,51.00000,3.642843e-09,0.91869,3
587.27,70.07917,      0.69651,     -1.96475,50.00000,51.00000,3.643662e-09,0.91866,3
593.701,70.71917,      0.53504,     -1.94775,50.00000,51.00000,3.643232e-09,0.91864,3
598.409,71.17917,      0.48511,     -1.93925,50.00000,51.00000,3.641846e-09,0.91862,4
603.234,71.49917,      2.15418,     -1.76975,50.00000,51.00000,3.643899e-09,0.91861,4
609.757,71.81917,      4.61297,     -1.60850,50.00000,51.00000,3.642811e-09,0.91860,4
616.521,72.13917,      5.57275,     -1.53200,50.00000,51.00000,3.647229e-09,0.91859,4
622.713,72.45917,      5.08343,     -1.53200,50.00000,51.00000,3.633011e-09,0.91857,4
628.541,72.77917,      4.36940,     -1.55175,50.00000,51.00000,3.642095e-09,0.91856,4
634.425,73.09917,      4.10746,     -1.48400,50.00000,51.00000,3.645753e-09,0.91854,4
640.584,73.41917,      4.18670,     -1.45000,50.00000,51.00000,3.640536e-09,0.91853,4
646.927,73.73917,      4.26465,     -1.41600,50.00000,51.00000,3.639828e-09,0.91851,4
653.307,74.05917,      4.17615,     -1.37925,50.00000,51.00000,3.643294e-09,0.91849,4
659.691,74.37917,      3.98085,     -1.36225,50.00000,51.00000,3.642474e-09,0.91847,4
666.105,74.69917,      3.76265,     -1.32850,50.00000,51.00000,3.645788e-09,0.91846,4
672.555,75.01917,      3.54297,     -1.31150,50.00000,51.00000,3.642439e-09,0.91844,4
679.018,75.33917,      3.31638,     -1.27750,50.00000,51.00000,3.642544e-09,0.91841,4
685.518,75.65917,      3.05350,     -1.27750,50.00000,51.00000,3.642680e-09,0.91839,4
692.018,75.97917,      2.75831,     -1.24350,50.00000,51.00000,3.646357e-09,0.91838,4
698.524,76.29917,      2.44635,     -1.21250,50.00000,51.00000,3.637479e-09,0.91837,4
705.045,76.61917,      2.12569,     -1.17850,50.00000,51.00000,3.640206e-09,0.91834,4
711.568,76.93917,      1.78436,     -1.14450,50.00000,51.00000,3.634856e-09,0.91832,4
718.083,77.25917,      1.42124,     -1.11075,50.00000,51.00000,3.640900e-09,0.91830,4
724.611,77.57917,      1.04811,     -1.07675,50.00000,51.00000,3.638251e-09,0.91828,4
731.124,77.89917,      0.67369,     -1.04275,50.00000,51.00000,3.632307e-09,0.91826,4
737.654,78.21917,      0.27860,     -1.04275,50.00000,51.00000,3.639561e-09,0.91823,4
744.17,78.53917,     -0.13134,     -1.00875,50.00000,51.00000,3.632093e-09,0.91821,4
750.675,78.85917,     -0.54197,     -0.99175,50.00000,51.00000,3.638281e-09,0.91818,4
757.188,79.17917,     -0.95159,     -0.94100,50.00000,51.00000,3.633112e-09,0.91816,4
763.688,79.49917,     -1.35929,     -0.94100,50.00000,51.00000,3.635554e-09,0.91814,4
770.189,79.81917,     -1.76501,     -0.90700,50.00000,51.00000,3.645778e-09,0.91811,4
776.682,80.13917,     -2.16277,     -0.89575,50.00000,51.00000,3.641343e-09,0.91809,4
783.172,80.45917,     -2.56722,     -0.82775,50.00000,51.00000,3.633439e-09,0.91807,4
789.656,80.77917,     -2.94234,     -0.78525,50.00000,51.00000,            ,0.44904,4
794.113,80.99917,     -3.19635,     -0.79375,50.00000,51.00000,            ,0.44725,4