File: data/TGA/ps_scf3_flynn_ozawa_wall/1K/ExpDat_2025_11_11_SL_PS_Tosoh_A1000_15K_min.csv
#EXPORTTYPE:                 ,DATA ALL
#FILE:                       ,2025_11_11_SL_PS_Tosoh_A1000_15K_min.ngb-ss5
#FORMAT:                     ,NETZSCH5
#FTYPE:                      ,ASCII
#IDENTITY:                   ,PS_A1000_15K_min
#DECIMAL:                    ,POINT
#SEPARATOR:                  ,COMMA
#MTYPE:                      ,DSC
#INSTRUMENT:                 ,NETZSCH STA 449F5
#PROJECT:                    ,PS
#DATE/TIME:                  ,11/12/2025 2:00:09 PM (UTC-5)
#CORR. FILE:                 ,
#TEMPCAL:                    ,05-05-2025 14:38
#SENSITIVITY:                ,28-06-2023 13:53
#LABORATORY:                 ,Tran/AAG
#OPERATOR:                   ,Stan
#REMARK:                     ,
#SAMPLE:                     ,PS_A1000_15K_min
#SAMPLE MASS /mg:            ,4.55
#MATERIAL:                   ,
#REFERENCE:                  ,
#REFERENCE MASS /mg:         ,0
#TYPE OF CRUCIBLE:           ,Al2O3 85 ‘l, open
#SAMPLE CRUCIBLE MASS /mg:   ,0
#REFERENCE CRUCIBLE MASS /mg:,0
#DSC RANGE /‘V:              ,5000
#TG RANGE /mg:               ,35000
#TAU-R:                      ,---
#CORR. CODE:                 ,000
#EXO:                        ,-1
#RANGE:                      ,20›C....800›C/0.0....20.0K/min
#SEGMENT:                    ,S1-4/4
#SEG. 1:                     ,20›C/5.0(K/min)/100›C
#SEG. 2:                     ,100›C/00:05/100›C
#SEG. 3:                     ,100›C/15.0(K/min)/600›C
#SEG. 4:                     ,600›C/20.0(K/min)/800›C

##Temp./›C,Time/min,DSC/(mW/mg),Mass/%,Gas Flow(purge2)/(ml/min),Gas Flow(protective)/(ml/min),TIC(scan:1)/A,Sensit./(uV/mW),Segment
 23.61300, 0.00000,      0.79927,    100,50.00000,54.00000,            ,0.92224,1
 34.54800, 4.26667,      0.39039,     87.90835,50.00000,48.00000,3.797914e-09,0.92358,1
 51.06400, 8.53333,      1.28872,     89.53209,50.00000,48.00000,3.818506e-09,0.92406,1
 76.86200,12.80000,      1.76417,     90.19846,50.00000,48.00000,3.826772e-09,0.92462,1
100.712,16.79917,      1.65758,     88.63187,50.00000,48.00000,3.834210e-09,0.92532,2
107.775,19.99917,      0.39760,     85.91670,50.00000,48.00000,3.835579e-09,0.92585,2
108.082,21.29250, 9.306888e-02,     85.12857,50.00000,48.00000,3.837699e-09,0.92600,3
108.601,21.71917,      0.25261,     85.67319,50.00000,48.00000,3.840284e-09,0.92605,3
110.245,22.14583,      0.79109,     86.71495,50.00000,48.00000,3.837638e-09,0.92608,3
113.057,22.57250,      1.52264,     87.76659,50.00000,48.00000,3.844363e-09,0.92612,3
116.642,22.99917,      2.18954,     88.42308,50.00000,48.00000,3.833978e-09,0.92615,3
120.654,23.42583,      2.69222,     88.94527,50.00000,48.00000,3.837878e-09,0.92617,3
125.019,23.85250,      3.08391,     89.33560,50.00000,48.00000,3.842663e-09,0.92619,3
129.837,24.27917,      3.47273,     89.85275,50.00000,48.00000,3.839141e-09,0.92620,3
135.246,24.70583,      3.91864,     90.29297,50.00000,48.00000,3.842200e-09,0.92620,3
141.251,25.13250,      4.39991,     90.77780,50.00000,48.00000,3.841426e-09,0.92620,3
147.744,25.55917,      4.86402,     91.16308,50.00000,48.00000,3.840873e-09,0.92619,3
154.585,25.98583,      5.26446,     91.41187,50.00000,48.00000,3.842258e-09,0.92617,3
161.673,26.41250,      5.59106,     91.62308,50.00000,48.00000,3.843332e-09,0.92615,3
168.942,26.83917,      5.86474,     91.80220,50.00000,48.00000,3.842437e-09,0.92612,3
176.381,27.26583,      6.09922,     91.89165,50.00000,48.00000,3.836735e-09,0.92607,3
183.949,27.69250,      6.29935,     92.01099,50.00000,48.00000,3.840892e-09,0.92604,3
191.613,28.11917,      6.45811,     92.04088,50.00000,48.00000,3.843180e-09,0.92598,3
199.319,28.54583,      6.56675,     92.10066,50.00000,48.00000,3.848208e-09,0.92593,3
206.984,28.97250,      6.63009,     92.06088,50.00000,48.00000,3.845788e-09,0.92585,3
214.584,29.39917,      6.68037,     91.97121,50.00000,48.00000,3.845969e-09,0.92577,3
222.121,29.82583,      6.67075,     91.84703,50.00000,48.00000,3.842194e-09,0.92570,3
229.581,30.25250,      6.65451,     91.72769,50.00000,48.00000,3.838678e-09,0.92560,3
236.942,30.67917,      6.60279,     91.54857,50.00000,48.00000,3.844980e-09,0.92552,3
244.232,31.10583,      6.59784,     91.29736,50.00000,48.00000,3.844064e-09,0.92541,3
251.401,31.53250,      6.49833,     90.97670,50.00000,48.00000,3.847094e-09,0.92532,3
258.5,31.95917,      6.41728,     90.53165,50.00000,48.00000,3.840563e-09,0.92519,3
265.492,32.38583,      6.35760,     90.04418,50.00000,48.00000,3.844475e-09,0.92504,3
272.409,32.81250,      6.29409,     89.44505,50.00000,48.00000,3.841682e-09,0.92494,3
279.23,33.23917,      6.23226,     88.73143,50.00000,48.00000,3.840787e-09,0.92478,3
285.972,33.66583,      6.18057,     87.92835,50.00000,48.00000,3.843697e-09,0.92467,3
292.661,34.09250,      6.15013,     86.90879,50.00000,48.00000,3.843821e-09,0.92450,3
299.275,34.51917,      6.15334,     85.73033,50.00000,48.00000,3.851330e-09,0.92438,3
305.846,34.94583,      6.16372,     84.37011,50.00000,48.00000,3.837813e-09,0.92419,3
312.372,35.37250,      6.19346,     82.78132,50.00000,48.00000,3.848070e-09,0.92400,3
318.864,35.79917,      6.24415,     80.92901,50.00000,48.00000,3.849414e-09,0.92386,3
325.312,36.22583,      6.29045,     78.83275,50.00000,48.00000,3.847289e-09,0.92365,3
331.741,36.65250,      6.35566,     76.57011,50.00000,48.00000,3.849865e-09,0.92351,3
338.145,37.07917,      6.41982,     74.05626,50.00000,48.00000,3.841846e-09,0.92328,3
344.531,37.50583,      6.49102,     71.37099,50.00000,48.00000,3.849483e-09,0.92313,3
350.895,37.93250,      6.53305,     68.54879,50.00000,48.00000,3.845001e-09,0.92289,3
357.245,38.35917,      6.58613,     65.55275,50.00000,48.00000,3.848567e-09,0.92265,3
363.606,38.78583,      6.60736,     62.44198,50.00000,48.00000,3.848866e-09,0.92248,3
369.941,39.21250,      6.62139,     59.17736,50.00000,48.00000,3.843485e-09,0.92223,3
376.272,39.63917,      6.64905,     55.73868,50.00000,48.00000,3.847425e-09,0.92205,3
382.602,40.06583,      6.68761,     52.05363,50.00000,48.00000,3.851473e-09,0.92181,3
388.926,40.49250,      6.70910,     48.32637,50.00000,48.00000,3.845332e-09,0.92161,3
395.248,40.91917,      6.75108,     44.38286,50.00000,48.00000,3.847861e-09,0.92147,3
401.567,41.34583,      6.76115,     40.32264,50.00000,48.00000,3.847349e-09,0.92128,3
407.896,41.77250,      6.79533,     36.09055,50.00000,48.00000,3.846454e-09,0.92115,3
414.2,42.19917,      6.78947,     31.63978,50.00000,48.00000,3.850189e-09,0.92097,3
420.533,42.62583,      6.77410,     26.97275,50.00000,48.00000,3.858425e-09,0.92085,3
426.856,43.05250,      6.68107,     22.03473,50.00000,48.00000,3.845893e-09,0.92068,3
433.19,43.47917,      6.53666,     17.02681,50.00000,48.00000,3.844177e-09,0.92053,3
439.529,43.90583,      6.26902,     12.10132,50.00000,48.00000,3.844259e-09,0.92043,3
445.857,44.33250,      5.89675,      7.59824,50.00000,48.00000,3.843093e-09,0.92030,3
452.208,44.75917,      5.46477,      3.73934,50.00000,48.00000,3.845372e-09,0.92022,3
458.55,45.18583,      5.04131,      0.85253,50.00000,48.00000,3.849354e-09,0.92009,3
464.908,45.61250,      4.74729,     -1.08703,50.00000,48.00000,3.839829e-09,0.92002,3
471.241,46.03917,      4.59358,     -2.20330,50.00000,48.00000,3.848511e-09,0.91992,3
477.585,46.46583,      4.44892,     -2.74286,50.00000,48.00000,3.847190e-09,0.91981,3
483.903,46.89250,      4.30686,     -2.92440,50.00000,48.00000,3.850192e-09,0.91975,3
490.247,47.31917,      4.20823,     -2.99912,50.00000,48.00000,3.845281e-09,0.91965,3
496.598,47.74583,      4.11767,     -3.08857,50.00000,48.00000,3.846408e-09,0.91960,3
502.937,48.17250,      4.02117,     -3.11846,50.00000,48.00000,3.849305e-09,0.91951,3
509.285,48.59917,      3.92430,     -3.17802,50.00000,48.00000,3.848827e-09,0.91943,3
515.638,49.02583,      3.82848,     -3.20791,50.00000,48.00000,3.851304e-09,0.91938,3
521.995,49.45250,      3.72325,     -3.20791,50.00000,48.00000,3.843422e-09,0.91931,3
528.358,49.87917,      3.61442,     -3.20549,50.00000,48.00000,3.852582e-09,0.91926,3
534.728,50.30583,      3.50457,     -3.17560,50.00000,48.00000,3.847482e-09,0.91920,3
541.088,50.73250,      3.38927,     -3.14571,50.00000,48.00000,3.845679e-09,0.91914,3
547.463,51.15917,      3.27236,     -3.14571,50.00000,48.00000,3.848975e-09,0.91910,3
553.848,51.58583,      3.15234,     -3.13824,50.00000,48.00000,3.840526e-09,0.91905,3
560.249,52.01250,      3.02950,     -3.09363,50.00000,48.00000,3.847285e-09,0.91902,3
566.639,52.43917,      2.89534,     -3.10088,50.00000,48.00000,3.840588e-09,0.91898,3
573.022,52.86583,      2.75178,     -3.08615,50.00000,48.00000,3.842479e-09,0.91896,3
579.425,53.29250,      2.61613,     -3.08615,50.00000,48.00000,3.843522e-09,0.91893,3
585.838,53.71917,      2.47601,     -3.05626,50.00000,48.00000,3.847496e-09,0.91890,3
592.25,54.14583,      2.32423,     -3.02637,50.00000,48.00000,3.853469e-09,0.91889,3
597.811,54.51250,      2.22419,     -3.02637,50.00000,48.00000,3.843034e-09,0.91888,4
603.393,54.83250,      2.77236,     -2.93692,50.00000,48.00000,3.851568e-09,0.91887,4
609.845,55.15250,      3.63464,     -2.90703,50.00000,48.00000,3.854623e-09,0.91886,4
616.449,55.47250,      3.92242,     -2.81758,50.00000,48.00000,3.848380e-09,0.91885,4
622.763,55.79250,      3.63928,     -2.81758,50.00000,48.00000,3.847415e-09,0.91885,4
628.9,56.11250,      3.24587,     -2.81758,50.00000,48.00000,3.840332e-09,0.91885,4
635.08,56.43250,      3.02571,     -2.78769,50.00000,48.00000,3.846162e-09,0.91885,4
641.365,56.75250,      2.93648,     -2.76527,50.00000,48.00000,3.855982e-09,0.91885,4
647.738,57.07250,      2.83324,     -2.76527,50.00000,48.00000,3.850098e-09,0.91885,4
654.131,57.39250,      2.67630,     -2.76527,50.00000,48.00000,3.843826e-09,0.91885,4
660.538,57.71250,      2.48458,     -2.73538,50.00000,48.00000,3.848090e-09,0.91885,4
666.969,58.03250,      2.27719,     -2.71802,50.00000,48.00000,3.846162e-09,0.91885,4
673.419,58.35250,      2.06431,     -2.70308,50.00000,48.00000,3.843682e-09,0.91885,4
679.864,58.67250,      1.84990,     -2.69560,50.00000,48.00000,3.847191e-09,0.91885,4
686.319,58.99250,      1.63540,     -2.67341,50.00000,48.00000,3.847799e-09,0.91885,4
692.801,59.31250,      1.40959,     -2.67341,50.00000,48.00000,3.848618e-09,0.91885,4
699.275,59.63250,      1.17230,     -2.67341,50.00000,48.00000,3.843015e-09,0.91885,4
705.761,59.95250,      0.93308,     -2.60857,50.00000,48.00000,3.848588e-09,0.91885,4
712.241,60.27250,      0.68883,     -2.62352,50.00000,48.00000,3.847489e-09,0.91885,4
718.729,60.59250,      0.44301,     -2.62352,50.00000,48.00000,3.839775e-09,0.91885,4
725.206,60.91250,      0.19214,     -2.59385,50.00000,48.00000,3.847445e-09,0.91885,4
731.69,61.23250,-6.560305e-02,     -2.59385,50.00000,48.00000,3.840603e-09,0.91886,4
738.175,61.55250,     -0.32030,     -2.56396,50.00000,48.00000,3.838479e-09,0.91885,4
744.661,61.87250,     -0.58405,     -2.53407,50.00000,48.00000,3.842980e-09,0.91885,4
751.139,62.19250,     -0.85733,     -2.55648,50.00000,48.00000,3.838962e-09,0.91885,4
757.613,62.51250,     -1.13592,     -2.49670,50.00000,48.00000,3.844633e-09,0.91885,4
764.092,62.83250,     -1.40931,     -2.49670,50.00000,48.00000,3.846300e-09,0.91885,4
770.562,63.15250,     -1.68616,     -2.46703,50.00000,48.00000,3.845812e-09,0.91885,4
777.036,63.47250,     -1.97616,     -2.46440,50.00000,48.00000,3.842083e-09,0.91885,4
783.493,63.79250,     -2.26163,     -2.43451,50.00000,48.00000,3.847653e-09,0.91885,4
789.965,64.11250,     -2.54967,     -2.40484,50.00000,48.00000,            ,0.44891,4
794.313,64.32750,     -2.74486,     -2.37495,50.00000,48.00000,            ,0.44717,4