File: data/TGA/ps_scf3_flynn_ozawa_wall/1K/ExpDat_2025_11_13_SL_PSSCF3_005f_J3_5K_min.csv
#EXPORTTYPE:                 ,DATA ALL
#FILE:                       ,2025_11_13_SL_PSSCF3_005f_J3_5K_min.ngb-ss5
#FORMAT:                     ,NETZSCH5
#FTYPE:                      ,ASCII
#IDENTITY:                   ,005F-J3
#DECIMAL:                    ,POINT
#SEPARATOR:                  ,COMMA
#MTYPE:                      ,DSC
#INSTRUMENT:                 ,NETZSCH STA 449F5
#PROJECT:                    ,PS
#DATE/TIME:                  ,11/13/2025 5:00:49 PM (UTC-5)
#CORR. FILE:                 ,
#TEMPCAL:                    ,05-05-2025 14:38
#SENSITIVITY:                ,28-06-2023 13:53
#LABORATORY:                 ,Tran/AAG
#OPERATOR:                   ,Stan
#REMARK:                     ,
#SAMPLE:                     ,005F-J3
#SAMPLE MASS /mg:            ,4.0
#MATERIAL:                   ,
#REFERENCE:                  ,
#REFERENCE MASS /mg:         ,0
#TYPE OF CRUCIBLE:           ,Al2O3 85 ‘l, open
#SAMPLE CRUCIBLE MASS /mg:   ,0
#REFERENCE CRUCIBLE MASS /mg:,0
#DSC RANGE /‘V:              ,5000
#TG RANGE /mg:               ,35000
#TAU-R:                      ,---
#CORR. CODE:                 ,000
#EXO:                        ,-1
#RANGE:                      ,20›C....800›C/0.0....20.0K/min
#SEGMENT:                    ,S1-4/4
#SEG. 1:                     ,20›C/5.0(K/min)/100›C
#SEG. 2:                     ,100›C/00:05/100›C
#SEG. 3:                     ,100›C/5.0(K/min)/600›C
#SEG. 4:                     ,600›C/20.0(K/min)/800›C

##Temp./›C,Time/min,DSC/(mW/mg),Mass/%,Gas Flow(purge2)/(ml/min),Gas Flow(protective)/(ml/min),TIC(scan:1)/A,Sensit./(uV/mW),Segment
 25.30000,  0.00000,      1.03326,    100,50.00000,56.00000,            ,0.92261,1
 38.97800,  5.66667,      0.54955,     86.40700,50.00000,51.00000,3.607334e-09,0.92409,1
 67.11000, 11.33333,      1.63363,     89.01175,50.00000,51.00000,3.614892e-09,0.92458,1
100.188, 16.75000,      1.72328,     89.30875,50.00000,51.00000,3.620160e-09,0.92537,2
108.005, 21.00000,      0.18142,     86.24850,50.00000,51.00000,3.631041e-09,0.92598,2
108.477, 22.13333,      0.25224,     86.30800,50.00000,51.00000,3.633507e-09,0.92608,3
110.658, 23.26667,      0.68995,     86.89325,50.00000,51.00000,3.631525e-09,0.92616,3
113.656, 24.40000,      0.95062,     87.24125,50.00000,51.00000,3.631326e-09,0.92620,3
117.653, 25.53333,      1.26462,     87.79550,50.00000,51.00000,3.629786e-09,0.92619,3
122.598, 26.66667,      1.55169,     88.27075,50.00000,51.00000,3.632843e-09,0.92613,3
128.162, 27.80000,      1.77265,     88.62725,50.00000,51.00000,3.626416e-09,0.92604,3
134.189, 28.93333,      1.94405,     88.95800,50.00000,51.00000,3.631167e-09,0.92589,3
140.488, 30.06667,      2.06030,     89.19575,50.00000,51.00000,3.631011e-09,0.92568,3
146.864, 31.20000,      2.12695,     89.36525,50.00000,51.00000,3.630445e-09,0.92542,3
153.241, 32.33333,      2.16212,     89.50100,50.00000,51.00000,3.634227e-09,0.92511,3
159.524, 33.46667,      2.17235,     89.56900,50.00000,51.00000,3.626369e-09,0.92475,3
165.699, 34.60000,      2.16457,     89.64525,50.00000,51.00000,3.629681e-09,0.92439,3
171.733, 35.73333,      2.15157,     89.71325,50.00000,51.00000,3.631528e-09,0.92394,3
177.653, 36.86667,      2.13672,     89.72175,50.00000,51.00000,3.627623e-09,0.92343,3
183.508, 38.00000,      2.12415,     89.71325,50.00000,51.00000,3.640556e-09,0.92289,3
189.276, 39.13333,      2.11902,     89.70475,50.00000,51.00000,3.634275e-09,0.92231,3
195.006, 40.26667,      2.11780,     89.73875,50.00000,51.00000,3.627809e-09,0.92182,3
200.696, 41.40000,      2.12357,     89.67075,50.00000,51.00000,3.628783e-09,0.92135,3
206.36, 42.53333,      2.13755,     89.65375,50.00000,51.00000,3.634948e-09,0.92092,3
212.008, 43.66667,      2.15830,     89.54925,50.00000,51.00000,3.630215e-09,0.92056,3
217.645, 44.80000,      2.18328,     89.49825,50.00000,51.00000,3.629461e-09,0.92025,3
223.278, 45.93333,      2.20115,     89.38225,50.00000,51.00000,3.630086e-09,0.91998,3
228.909, 47.06667,      2.21607,     89.23525,50.00000,51.00000,3.630275e-09,0.91978,3
234.523, 48.20000,      2.24195,     89.04000,50.00000,51.00000,3.641770e-09,0.91956,3
240.17, 49.33333,      2.25819,     88.90425,50.00000,51.00000,3.628386e-09,0.91938,3
245.816, 50.46667,      2.27619,     88.65825,50.00000,51.00000,3.633654e-09,0.91922,3
251.452, 51.60000,      2.30055,     88.45450,50.00000,51.00000,3.628509e-09,0.91909,3
257.096, 52.73333,      2.32586,     88.18600,50.00000,51.00000,3.632371e-09,0.91899,3
262.757, 53.86667,      2.34823,     87.89750,50.00000,51.00000,3.634110e-09,0.91892,3
268.417, 55.00000,      2.36986,     87.57775,50.00000,51.00000,3.629406e-09,0.91889,3
274.049, 56.13333,      2.37751,     87.23275,50.00000,51.00000,3.632502e-09,0.91887,3
279.701, 57.26667,      2.40629,     86.81700,50.00000,51.00000,3.627746e-09,0.91887,3
285.351, 58.40000,      2.41938,     86.33625,50.00000,51.00000,3.624792e-09,0.91887,3
290.988, 59.53333,      2.44495,     85.73950,50.00000,51.00000,3.628799e-09,0.91887,3
296.636, 60.66667,      2.45654,     85.04350,50.00000,51.00000,3.627719e-09,0.91887,3
302.282, 61.80000,      2.48806,     84.16125,50.00000,51.00000,3.628100e-09,0.91887,3
307.925, 62.93333,      2.46433,     83.07500,50.00000,51.00000,3.634433e-09,0.91886,3
313.592, 64.06667,      2.45224,     81.86175,50.00000,51.00000,3.626445e-09,0.91886,3
319.235, 65.20000,      2.33212,     80.39950,50.00000,51.00000,3.624613e-09,0.91885,3
324.885, 66.33333,      2.51630,     78.88350,50.00000,51.00000,3.628247e-09,0.91883,3
330.56, 67.46667,      2.39186,     77.19775,50.00000,51.00000,3.627615e-09,0.91881,3
336.187, 68.60000,      2.42891,     75.13875,50.00000,51.00000,3.625702e-09,0.91879,3
341.849, 69.73333,      2.32297,     72.87325,50.00000,51.00000,3.627751e-09,0.91876,3
347.504, 70.86667,      2.58298,     70.22875,50.00000,51.00000,3.631705e-09,0.91872,3
353.163, 72.00000,      2.60502,     67.12050,50.00000,51.00000,3.624145e-09,0.91868,3
358.816, 73.13333,      2.47975,     63.38700,50.00000,51.00000,3.618182e-09,0.91864,3
364.47, 74.26667,      2.66497,     59.05675,50.00000,51.00000,3.629398e-09,0.91860,3
370.111, 75.40000,      2.62842,     54.11000,50.00000,51.00000,3.621544e-09,0.91855,3
375.762, 76.53333,      2.67610,     48.60875,50.00000,51.00000,3.618021e-09,0.91850,3
381.424, 77.66667,      2.63232,     42.55325,50.00000,51.00000,3.619345e-09,0.91845,3
387.079, 78.80000,      2.58372,     36.18675,50.00000,51.00000,3.619084e-09,0.91839,3
392.73, 79.93333,      2.46963,     29.77200,50.00000,51.00000,3.620723e-09,0.91833,3
398.399, 81.06667,      2.28315,     23.52150,50.00000,51.00000,3.626804e-09,0.91828,3
404.057, 82.20000,      1.96936,     17.62725,50.00000,51.00000,3.620235e-09,0.91822,3
409.718, 83.33333,      1.58399,     12.09775,50.00000,51.00000,3.623754e-09,0.91816,3
415.385, 84.46667,      1.17100,      7.22450,50.00000,51.00000,3.624347e-09,0.91809,3
421.06, 85.60000,      0.87485,      3.01600,50.00000,51.00000,3.620641e-09,0.91802,3
426.725, 86.73333,      0.62632,     -0.19700,50.00000,51.00000,3.625382e-09,0.91795,3
432.383, 87.86667,      0.37481,     -2.56450,50.00000,51.00000,3.618637e-09,0.91789,3
438.051, 89.00000,      0.16695,     -4.01825,50.00000,51.00000,3.616957e-09,0.91782,3
443.713, 90.13333,-1.285038e-02,     -4.67725,50.00000,51.00000,3.617732e-09,0.91775,3
449.378, 91.26667,     -0.14155,     -4.90075,50.00000,51.00000,3.620598e-09,0.91767,3
455.038, 92.40000,     -0.24669,     -5.02225,50.00000,51.00000,3.608038e-09,0.91760,3
460.698, 93.53333,     -0.34655,     -5.10700,50.00000,51.00000,3.623701e-09,0.91751,3
466.337, 94.66667,     -0.45449,     -5.15800,50.00000,51.00000,3.620889e-09,0.91744,3
472.003, 95.80000,     -0.55950,     -5.19200,50.00000,51.00000,3.626991e-09,0.91736,3
477.684, 96.93333,     -0.66482,     -5.23450,50.00000,51.00000,3.622458e-09,0.91727,3
483.35, 98.06667,     -0.78181,     -5.22600,50.00000,51.00000,3.623294e-09,0.91719,3
489.028, 99.20000,     -0.89862,     -5.22600,50.00000,51.00000,3.630378e-09,0.91710,3
494.683,100.333,     -1.01424,     -5.19200,50.00000,51.00000,3.616872e-09,0.91701,3
500.357,101.467,     -1.13149,     -5.19200,50.00000,51.00000,3.622475e-09,0.91691,3
506.03,102.6,     -1.24907,     -5.10700,50.00000,51.00000,3.616994e-09,0.91682,3
511.682,103.733,     -1.37523,     -5.12400,50.00000,51.00000,3.617499e-09,0.91672,3
517.368,104.867,     -1.48899,     -5.09025,50.00000,51.00000,3.621364e-09,0.91661,3
523.024,106,     -1.62068,     -5.05625,50.00000,51.00000,3.620708e-09,0.91650,3
528.7,107.133,     -1.73553,     -5.03925,50.00000,51.00000,3.629068e-09,0.91639,3
534.385,108.267,     -1.86464,     -5.01375,50.00000,51.00000,3.621410e-09,0.91628,3
540.061,109.4,     -1.99006,     -5.01375,50.00000,51.00000,3.614260e-09,0.91616,3
545.745,110.533,     -2.11070,     -4.97975,50.00000,51.00000,3.616353e-09,0.91605,3
551.406,111.667,     -2.23003,     -4.95450,50.00000,51.00000,3.612595e-09,0.91593,3
557.09,112.8,     -2.34844,     -4.94600,50.00000,51.00000,3.612002e-09,0.91581,3
562.769,113.933,     -2.46887,     -4.93750,50.00000,51.00000,3.624757e-09,0.91567,3
568.459,115.067,     -2.58247,     -4.92050,50.00000,51.00000,3.612282e-09,0.91554,3
574.135,116.2,     -2.69828,     -4.92900,50.00000,51.00000,3.625184e-09,0.91541,3
579.821,117.333,     -2.81397,     -4.90350,50.00000,51.00000,3.615820e-09,0.91528,3
585.502,118.467,     -2.92561,     -4.86950,50.00000,51.00000,3.612546e-09,0.91514,3
591.184,119.6,     -3.03557,     -4.87800,50.00000,51.00000,3.611499e-09,0.91500,3
596.875,120.733,     -3.13498,     -4.87800,50.00000,51.00000,3.615813e-09,0.91485,3
600.648,121.325,     -2.36943,     -4.76500,50.00000,51.00000,3.619426e-09,0.91477,4
608.301,121.75,      1.45465,     -4.44525,50.00000,51.00000,3.609281e-09,0.91473,4
617.449,122.175,      2.73639,     -4.30950,50.00000,51.00000,3.615273e-09,0.91466,4
625.242,122.6,      1.64132,     -4.36050,50.00000,51.00000,3.618240e-09,0.91462,4
632.568,123.025,      1.10306,     -4.32375,50.00000,51.00000,3.613843e-09,0.91456,4
640.478,123.45,      1.35102,     -4.22175,50.00000,51.00000,3.617107e-09,0.91451,4
648.837,123.875,      1.48447,     -4.15400,50.00000,51.00000,3.609325e-09,0.91444,4
657.274,124.3,      1.34499,     -4.08600,50.00000,51.00000,3.612973e-09,0.91438,4
665.743,124.725,      1.13618,     -4.02675,50.00000,51.00000,3.616260e-09,0.91433,4
674.313,125.15,      0.92301,     -3.98150,50.00000,51.00000,3.615573e-09,0.91427,4
682.935,125.575,      0.66606,     -3.93050,50.00000,51.00000,3.612104e-09,0.91422,4
691.619,126,      0.38379,     -3.87675,50.00000,51.00000,3.622136e-09,0.91415,4
700.309,126.425, 5.174418e-02,     -3.80900,50.00000,51.00000,3.620096e-09,0.91411,4
709.008,126.85,     -0.29400,     -3.77500,50.00000,51.00000,3.626076e-09,0.91404,4
717.721,127.275,     -0.66518,     -3.67325,50.00000,51.00000,3.620937e-09,0.91397,4
726.426,127.7,     -1.05986,     -3.63925,50.00000,51.00000,3.620479e-09,0.91392,4
735.129,128.125,     -1.47847,     -3.58825,50.00000,51.00000,3.611191e-09,0.91385,4
743.823,128.55,     -1.90717,     -3.52900,50.00000,51.00000,3.620873e-09,0.91381,4
752.51,128.975,     -2.33171,     -3.49500,50.00000,51.00000,3.620231e-09,0.91374,4
761.184,129.4,     -2.76058,     -3.42700,50.00000,51.00000,3.628038e-09,0.91369,4
769.846,129.825,     -3.18547,     -3.37625,50.00000,51.00000,3.613803e-09,0.91362,4
778.511,130.25,     -3.60125,     -3.32525,50.00000,51.00000,3.612636e-09,0.91354,4
787.166,130.675,     -3.98814,     -3.29975,50.00000,51.00000,3.620348e-09,0.91350,4
793.788,131,     -4.29410,     -3.25450,50.00000,51.00000,            ,0.44738,4